Date:	23-Sep-20		Time:	11:32 PM		Version no:	0.00		Project name:	55		Sample name:	222		Section name:	section		Position	0.000000	mm	E0	0.000000	keV	E1	1.000000	keV/channel	sample surface	2.000000	cm	Tube anode:	Mo		Tube voltage:	30	kV	Tube current:	30	mA	gain	15		std. database			resultfile	result		matrix element	11		sample thickness	1.000000		air passage	0.560000	cm	comments	not in position		peaking_time	0.300000	m-sec	trigger_threshold	40.000000	V	mca_bin_width	2.000000	no:	number_mca_channels	2048.000000	no:	gap_time	2048.000000	m-sec	trigger_peaking_time	2048.000000	m-sec	GAINDAC	400		HIGHGAIN	400		TAURC	400		RCTAU	400		RCTAUFRAC	400		livetime	13.334824	seconds	runtime	15.000351	seconds	input_count_rate	47769.585089	cps	output_count_rate	42465.604889	cps	triggers	704307	seconds	events_in_run	618783	seconds	channel	content		1.000	0
2.000	0
3.000	0
4.000	0
5.000	0
6.000	0
7.000	0
8.000	0
9.000	0
10.000	0
11.000	0
12.000	0
13.000	0
14.000	0
15.000	0
16.000	0
17.000	0
18.000	0
19.000	0
20.000	0
21.000	0
22.000	0
23.000	0
24.000	0
25.000	0
26.000	0
27.000	0
28.000	0
29.000	0
30.000	0
31.000	0
32.000	1
33.000	1
34.000	0
35.000	0
36.000	0
37.000	1
38.000	0
39.000	0
40.000	0
41.000	1
42.000	0
43.000	0
44.000	1
45.000	1
46.000	1
47.000	1
48.000	1
49.000	1
50.000	1
51.000	1
52.000	2
53.000	3
54.000	3
55.000	4
56.000	6
57.000	9
58.000	15
59.000	18
60.000	22
61.000	26
62.000	29
63.000	31
64.000	34
65.000	28
66.000	29
67.000	29
68.000	28
69.000	26
70.000	26
71.000	24
72.000	27
73.000	24
74.000	23
75.000	27
76.000	25
77.000	27
78.000	25
79.000	23
80.000	22
81.000	26
82.000	24
83.000	26
84.000	27
85.000	27
86.000	24
87.000	24
88.000	22
89.000	24
90.000	24
91.000	22
92.000	23
93.000	21
94.000	23
95.000	23
96.000	21
97.000	24
98.000	21
99.000	19
100.000	20
101.000	22
102.000	21
103.000	20
104.000	21
105.000	19
106.000	22
107.000	20
108.000	21
109.000	19
110.000	22
111.000	20
112.000	18
113.000	17
114.000	20
115.000	20
116.000	18
117.000	16
118.000	17
119.000	18
120.000	18
121.000	18
122.000	19
123.000	15
124.000	16
125.000	15
126.000	15
127.000	18
128.000	16
129.000	16
130.000	18
131.000	14
132.000	16
133.000	15
134.000	16
135.000	18
136.000	18
137.000	16
138.000	16
139.000	16
140.000	18
141.000	22
142.000	22
143.000	24
144.000	25
145.000	26
146.000	27
147.000	24
148.000	26
149.000	26
150.000	24
151.000	20
152.000	17
153.000	19
154.000	19
155.000	18
156.000	18
157.000	14
158.000	15
159.000	18
160.000	13
161.000	16
162.000	16
163.000	19
164.000	18
165.000	25
166.000	26
167.000	31
168.000	39
169.000	43
170.000	49
171.000	46
172.000	44
173.000	44
174.000	39
175.000	34
176.000	33
177.000	31
178.000	30
179.000	31
180.000	34
181.000	42
182.000	51
183.000	62
184.000	84
185.000	106
186.000	143
187.000	184
188.000	230
189.000	263
190.000	294
191.000	309
192.000	291
193.000	267
194.000	222
195.000	176
196.000	138
197.000	96
198.000	67
199.000	46
200.000	36
201.000	25
202.000	21
203.000	17
204.000	20
205.000	18
206.000	19
207.000	16
208.000	16
209.000	21
210.000	17
211.000	20
212.000	23
213.000	21
214.000	23
215.000	24
216.000	32
217.000	29
218.000	34
219.000	46
220.000	50
221.000	52
222.000	58
223.000	58
224.000	52
225.000	52
226.000	52
227.000	41
228.000	38
229.000	27
230.000	24
231.000	19
232.000	19
233.000	16
234.000	17
235.000	13
236.000	14
237.000	15
238.000	14
239.000	13
240.000	14
241.000	15
242.000	15
243.000	16
244.000	18
245.000	20
246.000	20
247.000	22
248.000	33
249.000	42
250.000	59
251.000	77
252.000	96
253.000	118
254.000	141
255.000	161
256.000	169
257.000	182
258.000	171
259.000	159
260.000	132
261.000	121
262.000	96
263.000	75
264.000	55
265.000	39
266.000	31
267.000	29
268.000	25
269.000	23
270.000	25
271.000	24
272.000	28
273.000	30
274.000	31
275.000	37
276.000	34
277.000	40
278.000	36
279.000	31
280.000	34
281.000	33
282.000	35
283.000	40
284.000	47
285.000	54
286.000	63
287.000	73
288.000	76
289.000	85
290.000	78
291.000	81
292.000	76
293.000	68
294.000	60
295.000	53
296.000	41
297.000	40
298.000	31
299.000	30
300.000	25
301.000	25
302.000	27
303.000	27
304.000	29
305.000	27
306.000	28
307.000	28
308.000	31
309.000	35
310.000	36
311.000	37
312.000	42
313.000	46
314.000	51
315.000	60
316.000	71
317.000	92
318.000	103
319.000	137
320.000	160
321.000	187
322.000	223
323.000	240
324.000	255
325.000	236
326.000	234
327.000	212
328.000	179
329.000	156
330.000	129
331.000	98
332.000	77
333.000	67
334.000	47
335.000	41
336.000	38
337.000	43
338.000	44
339.000	47
340.000	52
341.000	60
342.000	73
343.000	99
344.000	128
345.000	169
346.000	253
347.000	368
348.000	572
349.000	901
350.000	1442
351.000	2284
352.000	3416
353.000	5060
354.000	7196
355.000	9795
356.000	12926
357.000	16135
358.000	19243
359.000	22078
360.000	24082
361.000	25034
362.000	24851
363.000	23541
364.000	21211
365.000	18408
366.000	15082
367.000	11858
368.000	8920
369.000	6403
370.000	4410
371.000	2927
372.000	1834
373.000	1144
374.000	689
375.000	428
376.000	289
377.000	229
378.000	202
379.000	221
380.000	265
381.000	350
382.000	457
383.000	631
384.000	836
385.000	1122
386.000	1479
387.000	1887
388.000	2343
389.000	2759
390.000	3159
391.000	3434
392.000	3646
393.000	3706
394.000	3606
395.000	3330
396.000	2996
397.000	2554
398.000	2067
399.000	1612
400.000	1227
401.000	864
402.000	601
403.000	401
404.000	253
405.000	168
406.000	96
407.000	58
408.000	34
409.000	23
410.000	18
411.000	15
412.000	10
413.000	8
414.000	8
415.000	8
416.000	9
417.000	6
418.000	8
419.000	8
420.000	8
421.000	9
422.000	8
423.000	8
424.000	8
425.000	10
426.000	11
427.000	12
428.000	13
429.000	16
430.000	21
431.000	27
432.000	36
433.000	42
434.000	54
435.000	64
436.000	80
437.000	92
438.000	106
439.000	113
440.000	128
441.000	124
442.000	126
443.000	120
444.000	107
445.000	101
446.000	81
447.000	70
448.000	52
449.000	49
450.000	38
451.000	32
452.000	29
453.000	24
454.000	26
455.000	22
456.000	21
457.000	23
458.000	19
459.000	19
460.000	17
461.000	18
462.000	15
463.000	16
464.000	14
465.000	12
466.000	13
467.000	14
468.000	13
469.000	13
470.000	14
471.000	17
472.000	17
473.000	20
474.000	18
475.000	21
476.000	24
477.000	27
478.000	27
479.000	31
480.000	32
481.000	34
482.000	34
483.000	33
484.000	33
485.000	30
486.000	31
487.000	26
488.000	25
489.000	20
490.000	20
491.000	21
492.000	16
493.000	15
494.000	16
495.000	14
496.000	14
497.000	13
498.000	15
499.000	13
500.000	15
501.000	15
502.000	15
503.000	16
504.000	17
505.000	16
506.000	17
507.000	19
508.000	18
509.000	20
510.000	19
511.000	20
512.000	20
513.000	17
514.000	20
515.000	23
516.000	23
517.000	25
518.000	24
519.000	25
520.000	23
521.000	29
522.000	28
523.000	32
524.000	32
525.000	36
526.000	36
527.000	40
528.000	42
529.000	39
530.000	37
531.000	39
532.000	38
533.000	35
534.000	32
535.000	33
536.000	28
537.000	24
538.000	25
539.000	24
540.000	23
541.000	21
542.000	22
543.000	21
544.000	20
545.000	21
546.000	21
547.000	19
548.000	21
549.000	24
550.000	23
551.000	22
552.000	24
553.000	25
554.000	26
555.000	26
556.000	24
557.000	28
558.000	24
559.000	27
560.000	29
561.000	30
562.000	35
563.000	36
564.000	43
565.000	49
566.000	55
567.000	58
568.000	76
569.000	84
570.000	101
571.000	110
572.000	123
573.000	132
574.000	144
575.000	151
576.000	157
577.000	155
578.000	145
579.000	141
580.000	135
581.000	115
582.000	94
583.000	87
584.000	74
585.000	62
586.000	53
587.000	46
588.000	38
589.000	34
590.000	34
591.000	33
592.000	27
593.000	26
594.000	25
595.000	26
596.000	28
597.000	30
598.000	25
599.000	31
600.000	27
601.000	28
602.000	27
603.000	34
604.000	35
605.000	42
606.000	47
607.000	54
608.000	73
609.000	97
610.000	129
611.000	179
612.000	228
613.000	338
614.000	458
615.000	603
616.000	776
617.000	1041
618.000	1266
619.000	1551
620.000	1832
621.000	2115
622.000	2377
623.000	2590
624.000	2695
625.000	2772
626.000	2774
627.000	2701
628.000	2504
629.000	2288
630.000	2001
631.000	1759
632.000	1457
633.000	1182
634.000	945
635.000	737
636.000	557
637.000	433
638.000	311
639.000	232
640.000	173
641.000	126
642.000	104
643.000	87
644.000	69
645.000	63
646.000	58
647.000	55
648.000	54
649.000	51
650.000	53
651.000	56
652.000	55
653.000	45
654.000	51
655.000	50
656.000	52
657.000	49
658.000	55
659.000	54
660.000	54
661.000	57
662.000	55
663.000	56
664.000	58
665.000	63
666.000	61
667.000	64
668.000	64
669.000	63
670.000	66
671.000	73
672.000	79
673.000	82
674.000	91
675.000	101
676.000	117
677.000	129
678.000	157
679.000	182
680.000	207
681.000	253
682.000	295
683.000	328
684.000	374
685.000	401
686.000	435
687.000	454
688.000	481
689.000	499
690.000	499
691.000	477
692.000	444
693.000	424
694.000	375
695.000	337
696.000	283
697.000	254
698.000	207
699.000	179
700.000	146
701.000	120
702.000	104
703.000	93
704.000	80
705.000	70
706.000	62
707.000	65
708.000	63
709.000	59
710.000	62
711.000	57
712.000	60
713.000	68
714.000	69
715.000	69
716.000	72
717.000	78
718.000	82
719.000	80
720.000	88
721.000	93
722.000	89
723.000	94
724.000	94
725.000	97
726.000	94
727.000	96
728.000	98
729.000	97
730.000	93
731.000	86
732.000	88
733.000	83
734.000	83
735.000	84
736.000	72
737.000	78
738.000	71
739.000	70
740.000	72
741.000	69
742.000	68
743.000	66
744.000	71
745.000	67
746.000	70
747.000	72
748.000	70
749.000	70
750.000	70
751.000	73
752.000	68
753.000	71
754.000	70
755.000	70
756.000	71
757.000	73
758.000	74
759.000	71
760.000	70
761.000	71
762.000	69
763.000	72
764.000	73
765.000	74
766.000	71
767.000	72
768.000	75
769.000	75
770.000	77
771.000	78
772.000	82
773.000	84
774.000	83
775.000	82
776.000	89
777.000	93
778.000	93
779.000	97
780.000	102
781.000	99
782.000	106
783.000	114
784.000	120
785.000	118
786.000	126
787.000	122
788.000	130
789.000	131
790.000	132
791.000	128
792.000	132
793.000	137
794.000	136
795.000	134
796.000	138
797.000	140
798.000	142
799.000	136
800.000	143
801.000	142
802.000	147
803.000	140
804.000	150
805.000	149
806.000	161
807.000	166
808.000	175
809.000	187
810.000	201
811.000	213
812.000	239
813.000	245
814.000	262
815.000	270
816.000	289
817.000	295
818.000	316
819.000	317
820.000	305
821.000	307
822.000	294
823.000	285
824.000	270
825.000	251
826.000	241
827.000	216
828.000	195
829.000	184
830.000	174
831.000	160
832.000	153
833.000	138
834.000	132
835.000	129
836.000	125
837.000	125
838.000	124
839.000	127
840.000	123
841.000	124
842.000	121
843.000	124
844.000	128
845.000	121
846.000	123
847.000	122
848.000	123
849.000	120
850.000	118
851.000	124
852.000	118
853.000	120
854.000	114
855.000	117
856.000	115
857.000	119
858.000	113
859.000	115
860.000	114
861.000	116
862.000	113
863.000	120
864.000	115
865.000	112
866.000	119
867.000	122
868.000	121
869.000	118
870.000	115
871.000	116
872.000	116
873.000	113
874.000	117
875.000	118
876.000	114
877.000	116
878.000	112
879.000	119
880.000	118
881.000	113
882.000	114
883.000	122
884.000	110
885.000	112
886.000	117
887.000	119
888.000	118
889.000	118
890.000	118
891.000	126
892.000	124
893.000	131
894.000	129
895.000	125
896.000	135
897.000	132
898.000	137
899.000	134
900.000	143
901.000	148
902.000	144
903.000	147
904.000	140
905.000	150
906.000	155
907.000	152
908.000	160
909.000	159
910.000	161
911.000	161
912.000	161
913.000	156
914.000	163
915.000	162
916.000	160
917.000	171
918.000	171
919.000	169
920.000	171
921.000	168
922.000	177
923.000	178
924.000	176
925.000	180
926.000	179
927.000	189
928.000	189
929.000	195
930.000	196
931.000	203
932.000	203
933.000	214
934.000	217
935.000	225
936.000	228
937.000	232
938.000	249
939.000	249
940.000	249
941.000	255
942.000	257
943.000	266
944.000	262
945.000	260
946.000	267
947.000	256
948.000	251
949.000	238
950.000	241
951.000	219
952.000	212
953.000	213
954.000	198
955.000	191
956.000	196
957.000	192
958.000	183
959.000	189
960.000	179
961.000	177
962.000	181
963.000	174
964.000	186
965.000	176
966.000	182
967.000	183
968.000	188
969.000	186
970.000	185
971.000	187
972.000	188
973.000	191
974.000	184
975.000	184
976.000	178
977.000	185
978.000	185
979.000	170
980.000	165
981.000	170
982.000	166
983.000	151
984.000	161
985.000	150
986.000	155
987.000	148
988.000	146
989.000	142
990.000	141
991.000	142
992.000	138
993.000	142
994.000	140
995.000	141
996.000	135
997.000	140
998.000	134
999.000	131
1000.000	135
1001.000	131
1002.000	133
1003.000	135
1004.000	127
1005.000	132
1006.000	131
1007.000	140
1008.000	139
1009.000	138
1010.000	135
1011.000	139
1012.000	129
1013.000	134
1014.000	131
1015.000	136
1016.000	138
1017.000	131
1018.000	141
1019.000	133
1020.000	137
1021.000	136
1022.000	138
1023.000	134
1024.000	136
1025.000	139
1026.000	131
1027.000	137
1028.000	139
1029.000	140
1030.000	133
1031.000	145
1032.000	139
1033.000	139
1034.000	138
1035.000	147
1036.000	146
1037.000	144
1038.000	146
1039.000	137
1040.000	146
1041.000	146
1042.000	148
1043.000	145
1044.000	157
1045.000	151
1046.000	141
1047.000	152
1048.000	145
1049.000	150
1050.000	155
1051.000	148
1052.000	153
1053.000	150
1054.000	154
1055.000	149
1056.000	156
1057.000	158
1058.000	161
1059.000	153
1060.000	158
1061.000	158
1062.000	161
1063.000	155
1064.000	158
1065.000	161
1066.000	157
1067.000	162
1068.000	159
1069.000	156
1070.000	155
1071.000	157
1072.000	157
1073.000	157
1074.000	159
1075.000	152
1076.000	159
1077.000	148
1078.000	160
1079.000	158
1080.000	150
1081.000	156
1082.000	166
1083.000	158
1084.000	157
1085.000	154
1086.000	157
1087.000	164
1088.000	158
1089.000	160
1090.000	164
1091.000	167
1092.000	166
1093.000	169
1094.000	164
1095.000	165
1096.000	173
1097.000	167
1098.000	171
1099.000	169
1100.000	174
1101.000	170
1102.000	170
1103.000	172
1104.000	164
1105.000	168
1106.000	165
1107.000	165
1108.000	169
1109.000	164
1110.000	159
1111.000	167
1112.000	163
1113.000	160
1114.000	166
1115.000	156
1116.000	156
1117.000	155
1118.000	154
1119.000	163
1120.000	153
1121.000	158
1122.000	157
1123.000	157
1124.000	153
1125.000	159
1126.000	158
1127.000	160
1128.000	161
1129.000	161
1130.000	163
1131.000	155
1132.000	167
1133.000	161
1134.000	162
1135.000	169
1136.000	159
1137.000	167
1138.000	163
1139.000	170
1140.000	167
1141.000	168
1142.000	163
1143.000	162
1144.000	161
1145.000	156
1146.000	172
1147.000	167
1148.000	168
1149.000	171
1150.000	169
1151.000	169
1152.000	170
1153.000	174
1154.000	181
1155.000	174
1156.000	177
1157.000	183
1158.000	177
1159.000	183
1160.000	190
1161.000	187
1162.000	181
1163.000	181
1164.000	178
1165.000	177
1166.000	183
1167.000	175
1168.000	176
1169.000	179
1170.000	170
1171.000	173
1172.000	170
1173.000	165
1174.000	161
1175.000	174
1176.000	163
1177.000	168
1178.000	161
1179.000	157
1180.000	155
1181.000	157
1182.000	156
1183.000	154
1184.000	164
1185.000	171
1186.000	160
1187.000	155
1188.000	155
1189.000	160
1190.000	155
1191.000	158
1192.000	164
1193.000	159
1194.000	156
1195.000	162
1196.000	158
1197.000	159
1198.000	162
1199.000	163
1200.000	164
1201.000	162
1202.000	161
1203.000	159
1204.000	162
1205.000	163
1206.000	157
1207.000	159
1208.000	154
1209.000	163
1210.000	163
1211.000	170
1212.000	169
1213.000	166
1214.000	166
1215.000	169
1216.000	158
1217.000	164
1218.000	167
1219.000	167
1220.000	170
1221.000	165
1222.000	171
1223.000	159
1224.000	165
1225.000	167
1226.000	166
1227.000	169
1228.000	168
1229.000	169
1230.000	161
1231.000	168
1232.000	164
1233.000	167
1234.000	165
1235.000	174
1236.000	172
1237.000	175
1238.000	174
1239.000	168
1240.000	170
1241.000	165
1242.000	170
1243.000	176
1244.000	163
1245.000	173
1246.000	168
1247.000	169
1248.000	166
1249.000	163
1250.000	168
1251.000	161
1252.000	166
1253.000	163
1254.000	168
1255.000	172
1256.000	164
1257.000	166
1258.000	170
1259.000	163
1260.000	163
1261.000	173
1262.000	157
1263.000	168
1264.000	164
1265.000	165
1266.000	161
1267.000	170
1268.000	169
1269.000	162
1270.000	164
1271.000	157
1272.000	168
1273.000	169
1274.000	158
1275.000	165
1276.000	163
1277.000	168
1278.000	158
1279.000	164
1280.000	164
1281.000	163
1282.000	166
1283.000	159
1284.000	165
1285.000	170
1286.000	165
1287.000	164
1288.000	174
1289.000	161
1290.000	174
1291.000	172
1292.000	174
1293.000	175
1294.000	175
1295.000	177
1296.000	175
1297.000	174
1298.000	182
1299.000	183
1300.000	184
1301.000	183
1302.000	190
1303.000	185
1304.000	182
1305.000	181
1306.000	183
1307.000	190
1308.000	180
1309.000	175
1310.000	174
1311.000	176
1312.000	179
1313.000	179
1314.000	172
1315.000	177
1316.000	172
1317.000	180
1318.000	170
1319.000	172
1320.000	170
1321.000	168
1322.000	173
1323.000	181
1324.000	172
1325.000	168
1326.000	163
1327.000	172
1328.000	173
1329.000	169
1330.000	168
1331.000	173
1332.000	172
1333.000	179
1334.000	177
1335.000	169
1336.000	177
1337.000	172
1338.000	179
1339.000	167
1340.000	166
1341.000	173
1342.000	177
1343.000	175
1344.000	180
1345.000	175
1346.000	185
1347.000	177
1348.000	171
1349.000	173
1350.000	174
1351.000	181
1352.000	178
1353.000	181
1354.000	189
1355.000	193
1356.000	194
1357.000	212
1358.000	222
1359.000	241
1360.000	243
1361.000	267
1362.000	301
1363.000	316
1364.000	358
1365.000	400
1366.000	427
1367.000	491
1368.000	526
1369.000	591
1370.000	663
1371.000	718
1372.000	764
1373.000	831
1374.000	882
1375.000	911
1376.000	973
1377.000	1000
1378.000	1025
1379.000	1038
1380.000	1042
1381.000	1027
1382.000	1003
1383.000	978
1384.000	951
1385.000	897
1386.000	845
1387.000	773
1388.000	708
1389.000	661
1390.000	598
1391.000	530
1392.000	486
1393.000	425
1394.000	388
1395.000	352
1396.000	317
1397.000	280
1398.000	257
1399.000	232
1400.000	232
1401.000	206
1402.000	202
1403.000	184
1404.000	180
1405.000	184
1406.000	180
1407.000	176
1408.000	177
1409.000	172
1410.000	166
1411.000	165
1412.000	169
1413.000	164
1414.000	173
1415.000	174
1416.000	171
1417.000	173
1418.000	163
1419.000	162
1420.000	164
1421.000	163
1422.000	161
1423.000	170
1424.000	165
1425.000	166
1426.000	173
1427.000	175
1428.000	173
1429.000	165
1430.000	173
1431.000	176
1432.000	171
1433.000	166
1434.000	165
1435.000	165
1436.000	170
1437.000	165
1438.000	176
1439.000	171
1440.000	166
1441.000	174
1442.000	174
1443.000	162
1444.000	168
1445.000	175
1446.000	174
1447.000	171
1448.000	174
1449.000	169
1450.000	180
1451.000	173
1452.000	177
1453.000	174
1454.000	178
1455.000	180
1456.000	182
1457.000	170
1458.000	183
1459.000	182
1460.000	182
1461.000	179
1462.000	178
1463.000	180
1464.000	183
1465.000	176
1466.000	174
1467.000	173
1468.000	168
1469.000	168
1470.000	173
1471.000	179
1472.000	177
1473.000	173
1474.000	173
1475.000	167
1476.000	168
1477.000	173
1478.000	182
1479.000	180
1480.000	176
1481.000	178
1482.000	169
1483.000	175
1484.000	176
1485.000	166
1486.000	178
1487.000	180
1488.000	174
1489.000	174
1490.000	174
1491.000	177
1492.000	173
1493.000	179
1494.000	176
1495.000	173
1496.000	179
1497.000	178
1498.000	175
1499.000	171
1500.000	174
1501.000	176
1502.000	181
1503.000	172
1504.000	180
1505.000	179
1506.000	176
1507.000	182
1508.000	181
1509.000	177
1510.000	172
1511.000	182
1512.000	187
1513.000	184
1514.000	174
1515.000	188
1516.000	188
1517.000	188
1518.000	186
1519.000	187
1520.000	193
1521.000	196
1522.000	186
1523.000	196
1524.000	192
1525.000	210
1526.000	206
1527.000	212
1528.000	217
1529.000	234
1530.000	238
1531.000	242
1532.000	250
1533.000	267
1534.000	269
1535.000	283
1536.000	299
1537.000	312
1538.000	320
1539.000	330
1540.000	325
1541.000	341
1542.000	347
1543.000	350
1544.000	348
1545.000	347
1546.000	343
1547.000	350
1548.000	353
1549.000	332
1550.000	333
1551.000	319
1552.000	316
1553.000	302
1554.000	292
1555.000	294
1556.000	288
1557.000	278
1558.000	276
1559.000	274
1560.000	270
1561.000	274
1562.000	271
1563.000	271
1564.000	266
1565.000	277
1566.000	277
1567.000	285
1568.000	294
1569.000	287
1570.000	300
1571.000	305
1572.000	306
1573.000	317
1574.000	317
1575.000	324
1576.000	331
1577.000	333
1578.000	355
1579.000	356
1580.000	364
1581.000	375
1582.000	383
1583.000	393
1584.000	400
1585.000	409
1586.000	420
1587.000	440
1588.000	450
1589.000	447
1590.000	475
1591.000	485
1592.000	489
1593.000	503
1594.000	513
1595.000	516
1596.000	539
1597.000	542
1598.000	545
1599.000	555
1600.000	556
1601.000	564
1602.000	581
1603.000	575
1604.000	597
1605.000	582
1606.000	583
1607.000	598
1608.000	581
1609.000	590
1610.000	581
1611.000	581
1612.000	574
1613.000	564
1614.000	571
1615.000	566
1616.000	559
1617.000	558
1618.000	535
1619.000	543
1620.000	527
1621.000	518
1622.000	503
1623.000	502
1624.000	501
1625.000	481
1626.000	470
1627.000	462
1628.000	451
1629.000	442
1630.000	422
1631.000	413
1632.000	407
1633.000	391
1634.000	378
1635.000	368
1636.000	367
1637.000	353
1638.000	343
1639.000	327
1640.000	318
1641.000	314
1642.000	307
1643.000	292
1644.000	287
1645.000	291
1646.000	269
1647.000	270
1648.000	252
1649.000	257
1650.000	244
1651.000	230
1652.000	226
1653.000	221
1654.000	225
1655.000	223
1656.000	218
1657.000	202
1658.000	200
1659.000	200
1660.000	198
1661.000	193
1662.000	189
1663.000	188
1664.000	189
1665.000	187
1666.000	179
1667.000	180
1668.000	185
1669.000	181
1670.000	173
1671.000	173
1672.000	172
1673.000	180
1674.000	178
1675.000	182
1676.000	187
1677.000	191
1678.000	202
1679.000	208
1680.000	217
1681.000	221
1682.000	225
1683.000	252
1684.000	259
1685.000	263
1686.000	281
1687.000	317
1688.000	336
1689.000	353
1690.000	387
1691.000	395
1692.000	414
1693.000	451
1694.000	459
1695.000	484
1696.000	502
1697.000	499
1698.000	529
1699.000	534
1700.000	542
1701.000	566
1702.000	546
1703.000	547
1704.000	543
1705.000	528
1706.000	519
1707.000	494
1708.000	472
1709.000	435
1710.000	426
1711.000	410
1712.000	384
1713.000	348
1714.000	341
1715.000	301
1716.000	286
1717.000	262
1718.000	252
1719.000	224
1720.000	222
1721.000	196
1722.000	187
1723.000	175
1724.000	173
1725.000	165
1726.000	154
1727.000	153
1728.000	146
1729.000	136
1730.000	147
1731.000	140
1732.000	140
1733.000	141
1734.000	139
1735.000	141
1736.000	133
1737.000	135
1738.000	134
1739.000	136
1740.000	136
1741.000	138
1742.000	140
1743.000	141
1744.000	136
1745.000	138
1746.000	142
1747.000	146
1748.000	145
1749.000	143
1750.000	133
1751.000	140
1752.000	141
1753.000	144
1754.000	141
1755.000	144
1756.000	144
1757.000	149
1758.000	146
1759.000	147
1760.000	150
1761.000	148
1762.000	154
1763.000	150
1764.000	147
1765.000	154
1766.000	155
1767.000	158
1768.000	160
1769.000	161
1770.000	158
1771.000	171
1772.000	163
1773.000	165
1774.000	167
1775.000	168
1776.000	175
1777.000	174
1778.000	173
1779.000	181
1780.000	172
1781.000	181
1782.000	183
1783.000	182
1784.000	188
1785.000	183
1786.000	179
1787.000	185
1788.000	185
1789.000	182
1790.000	181
1791.000	198
1792.000	194
1793.000	185
1794.000	182
1795.000	190
1796.000	188
1797.000	186
1798.000	190
1799.000	184
1800.000	191
1801.000	184
1802.000	188
1803.000	187
1804.000	185
1805.000	176
1806.000	176
1807.000	186
1808.000	174
1809.000	170
1810.000	169
1811.000	172
1812.000	168
1813.000	162
1814.000	158
1815.000	154
1816.000	167
1817.000	153
1818.000	158
1819.000	152
1820.000	151
1821.000	152
1822.000	149
1823.000	146
1824.000	138
1825.000	139
1826.000	143
1827.000	131
1828.000	129
1829.000	136
1830.000	127
1831.000	130
1832.000	130
1833.000	121
1834.000	119
1835.000	115
1836.000	117
1837.000	114
1838.000	113
1839.000	120
1840.000	108
1841.000	113
1842.000	104
1843.000	104
1844.000	102
1845.000	105
1846.000	101
1847.000	100
1848.000	96
1849.000	100
1850.000	93
1851.000	96
1852.000	96
1853.000	92
1854.000	94
1855.000	94
1856.000	88
1857.000	87
1858.000	83
1859.000	87
1860.000	79
1861.000	84
1862.000	83
1863.000	77
1864.000	79
1865.000	82
1866.000	83
1867.000	80
1868.000	75
1869.000	78
1870.000	77
1871.000	75
1872.000	77
1873.000	81
1874.000	78
1875.000	75
1876.000	72
1877.000	79
1878.000	72
1879.000	72
1880.000	76
1881.000	70
1882.000	70
1883.000	69
1884.000	73
1885.000	69
1886.000	76
1887.000	78
1888.000	73
1889.000	72
1890.000	72
1891.000	74
1892.000	80
1893.000	78
1894.000	80
1895.000	80
1896.000	81
1897.000	86
1898.000	93
1899.000	94
1900.000	100
1901.000	94
1902.000	99
1903.000	112
1904.000	107
1905.000	105
1906.000	114
1907.000	116
1908.000	112
1909.000	123
1910.000	117
1911.000	120
1912.000	120
1913.000	122
1914.000	118
1915.000	120
1916.000	116
1917.000	114
1918.000	107
1919.000	109
1920.000	101
1921.000	94
1922.000	93
1923.000	87
1924.000	90
1925.000	88
1926.000	78
1927.000	79
1928.000	77
1929.000	69
1930.000	73
1931.000	71
1932.000	71
1933.000	68
1934.000	68
1935.000	68
1936.000	66
1937.000	70
1938.000	67
1939.000	68
1940.000	64
1941.000	67
1942.000	70
1943.000	63
1944.000	66
1945.000	63
1946.000	67
1947.000	67
1948.000	63
1949.000	65
1950.000	65
1951.000	63
1952.000	59
1953.000	61
1954.000	61
1955.000	62
1956.000	61
1957.000	58
1958.000	49
1959.000	55
1960.000	53
1961.000	56
1962.000	53
1963.000	52
1964.000	52
1965.000	52
1966.000	54
1967.000	49
1968.000	52
1969.000	49
1970.000	51
1971.000	54
1972.000	53
1973.000	53
1974.000	53
1975.000	48
1976.000	51
1977.000	49
1978.000	52
1979.000	52
1980.000	49
1981.000	48
1982.000	50
1983.000	49
1984.000	48
1985.000	47
1986.000	51
1987.000	49
1988.000	48
1989.000	49
1990.000	53
1991.000	50
1992.000	48
1993.000	52
1994.000	48
1995.000	47
1996.000	49
1997.000	48
1998.000	48
1999.000	50
2000.000	47
2001.000	49
2002.000	50
2003.000	48
2004.000	48
2005.000	48
2006.000	50
2007.000	46
2008.000	46
2009.000	48
2010.000	46
2011.000	45
2012.000	48
2013.000	46
2014.000	47
2015.000	47
2016.000	48
2017.000	46
2018.000	50
2019.000	46
2020.000	45
2021.000	46
2022.000	47
2023.000	46
2024.000	50
2025.000	47
2026.000	49
2027.000	46
2028.000	48
2029.000	45
2030.000	50
2031.000	45
2032.000	46
2033.000	44
2034.000	46
2035.000	49
2036.000	48
2037.000	44
2038.000	46
2039.000	42
2040.000	46
2041.000	44
2042.000	44
2043.000	44
2044.000	50
2045.000	46
2046.000	48
2047.000	46
2048.000	0
