Date:	22-Sep-20		Time:	10:49 PM		Version no:	0.00		Project name:	55		Sample name:	222		Section name:	section		Position	0.000000	mm	E0	0.000000	keV	E1	1.000000	keV/channel	sample surface	2.000000	cm	Tube anode:	Mo		Tube voltage:	30	kV	Tube current:	30	mA	gain	15		std. database			resultfile	result		matrix element	11		sample thickness	1.000000		air passage	0.560000	cm	comments	not in position		peaking_time	0.300000	m-sec	trigger_threshold	40.000000	V	mca_bin_width	2.000000	no:	number_mca_channels	2048.000000	no:	gap_time	2048.000000	m-sec	trigger_peaking_time	2048.000000	m-sec	GAINDAC	400		HIGHGAIN	400		TAURC	400		RCTAU	400		RCTAUFRAC	400		livetime	12.778311	seconds	runtime	15.000098	seconds	input_count_rate	8453.386602	cps	output_count_rate	7201.286285	cps	triggers	126178	seconds	events_in_run	98622	seconds	channel	content		1.000	0
2.000	0
3.000	0
4.000	0
5.000	0
6.000	0
7.000	0
8.000	0
9.000	0
10.000	0
11.000	0
12.000	0
13.000	0
14.000	0
15.000	0
16.000	0
17.000	0
18.000	0
19.000	0
20.000	0
21.000	0
22.000	0
23.000	0
24.000	0
25.000	0
26.000	0
27.000	0
28.000	0
29.000	0
30.000	0
31.000	0
32.000	0
33.000	0
34.000	0
35.000	0
36.000	0
37.000	0
38.000	0
39.000	0
40.000	0
41.000	0
42.000	0
43.000	0
44.000	0
45.000	0
46.000	0
47.000	1
48.000	1
49.000	0
50.000	1
51.000	1
52.000	2
53.000	2
54.000	3
55.000	4
56.000	5
57.000	8
58.000	10
59.000	16
60.000	21
61.000	22
62.000	23
63.000	29
64.000	24
65.000	25
66.000	21
67.000	21
68.000	22
69.000	22
70.000	21
71.000	21
72.000	19
73.000	20
74.000	21
75.000	22
76.000	19
77.000	22
78.000	17
79.000	20
80.000	19
81.000	18
82.000	19
83.000	19
84.000	21
85.000	20
86.000	21
87.000	20
88.000	19
89.000	20
90.000	21
91.000	19
92.000	15
93.000	16
94.000	17
95.000	19
96.000	17
97.000	17
98.000	16
99.000	17
100.000	17
101.000	16
102.000	16
103.000	15
104.000	14
105.000	14
106.000	16
107.000	15
108.000	15
109.000	15
110.000	15
111.000	15
112.000	14
113.000	16
114.000	15
115.000	12
116.000	15
117.000	15
118.000	16
119.000	16
120.000	14
121.000	14
122.000	15
123.000	13
124.000	11
125.000	14
126.000	12
127.000	12
128.000	12
129.000	14
130.000	11
131.000	11
132.000	13
133.000	14
134.000	12
135.000	12
136.000	12
137.000	12
138.000	13
139.000	13
140.000	16
141.000	17
142.000	19
143.000	20
144.000	22
145.000	22
146.000	22
147.000	20
148.000	19
149.000	19
150.000	17
151.000	17
152.000	16
153.000	16
154.000	15
155.000	15
156.000	14
157.000	13
158.000	13
159.000	12
160.000	15
161.000	14
162.000	21
163.000	26
164.000	34
165.000	56
166.000	74
167.000	103
168.000	127
169.000	147
170.000	158
171.000	154
172.000	151
173.000	129
174.000	111
175.000	84
176.000	69
177.000	52
178.000	41
179.000	32
180.000	26
181.000	29
182.000	29
183.000	31
184.000	40
185.000	45
186.000	53
187.000	70
188.000	78
189.000	97
190.000	104
191.000	107
192.000	98
193.000	92
194.000	83
195.000	65
196.000	50
197.000	37
198.000	30
199.000	21
200.000	17
201.000	14
202.000	12
203.000	12
204.000	12
205.000	11
206.000	9
207.000	9
208.000	10
209.000	10
210.000	10
211.000	11
212.000	12
213.000	11
214.000	12
215.000	14
216.000	11
217.000	17
218.000	15
219.000	18
220.000	20
221.000	20
222.000	22
223.000	22
224.000	21
225.000	23
226.000	20
227.000	18
228.000	15
229.000	14
230.000	12
231.000	11
232.000	11
233.000	10
234.000	9
235.000	8
236.000	8
237.000	8
238.000	10
239.000	8
240.000	8
241.000	8
242.000	9
243.000	5
244.000	8
245.000	9
246.000	9
247.000	10
248.000	14
249.000	15
250.000	22
251.000	23
252.000	27
253.000	39
254.000	43
255.000	48
256.000	55
257.000	53
258.000	52
259.000	47
260.000	50
261.000	37
262.000	30
263.000	27
264.000	22
265.000	14
266.000	14
267.000	14
268.000	14
269.000	12
270.000	15
271.000	14
272.000	14
273.000	15
274.000	15
275.000	17
276.000	15
277.000	14
278.000	14
279.000	14
280.000	15
281.000	19
282.000	17
283.000	20
284.000	26
285.000	30
286.000	34
287.000	41
288.000	46
289.000	48
290.000	47
291.000	47
292.000	43
293.000	39
294.000	35
295.000	30
296.000	26
297.000	19
298.000	17
299.000	15
300.000	14
301.000	12
302.000	11
303.000	14
304.000	12
305.000	11
306.000	14
307.000	17
308.000	18
309.000	16
310.000	20
311.000	23
312.000	25
313.000	27
314.000	39
315.000	49
316.000	69
317.000	84
318.000	113
319.000	149
320.000	179
321.000	225
322.000	268
323.000	283
324.000	307
325.000	303
326.000	289
327.000	263
328.000	224
329.000	190
330.000	151
331.000	114
332.000	85
333.000	59
334.000	41
335.000	31
336.000	27
337.000	23
338.000	21
339.000	19
340.000	24
341.000	26
342.000	28
343.000	40
344.000	54
345.000	76
346.000	100
347.000	145
348.000	214
349.000	330
350.000	515
351.000	785
352.000	1173
353.000	1739
354.000	2428
355.000	3308
356.000	4346
357.000	5430
358.000	6513
359.000	7361
360.000	8102
361.000	8399
362.000	8369
363.000	7907
364.000	7181
365.000	6225
366.000	5136
367.000	4018
368.000	2998
369.000	2171
370.000	1511
371.000	996
372.000	630
373.000	391
374.000	238
375.000	152
376.000	95
377.000	78
378.000	70
379.000	76
380.000	86
381.000	114
382.000	149
383.000	205
384.000	278
385.000	364
386.000	477
387.000	618
388.000	763
389.000	912
390.000	1044
391.000	1139
392.000	1199
393.000	1232
394.000	1182
395.000	1105
396.000	978
397.000	828
398.000	682
399.000	543
400.000	408
401.000	294
402.000	201
403.000	136
404.000	93
405.000	53
406.000	36
407.000	22
408.000	17
409.000	9
410.000	9
411.000	6
412.000	5
413.000	5
414.000	5
415.000	6
416.000	5
417.000	6
418.000	8
419.000	4
420.000	6
421.000	6
422.000	7
423.000	7
424.000	8
425.000	8
426.000	13
427.000	17
428.000	23
429.000	30
430.000	43
431.000	62
432.000	84
433.000	120
434.000	162
435.000	199
436.000	244
437.000	286
438.000	335
439.000	377
440.000	397
441.000	405
442.000	403
443.000	388
444.000	338
445.000	299
446.000	248
447.000	201
448.000	171
449.000	136
450.000	103
451.000	81
452.000	71
453.000	57
454.000	54
455.000	51
456.000	44
457.000	38
458.000	36
459.000	34
460.000	30
461.000	27
462.000	24
463.000	23
464.000	20
465.000	18
466.000	15
467.000	19
468.000	21
469.000	22
470.000	22
471.000	28
472.000	30
473.000	39
474.000	40
475.000	46
476.000	50
477.000	60
478.000	69
479.000	77
480.000	74
481.000	78
482.000	88
483.000	81
484.000	82
485.000	80
486.000	72
487.000	62
488.000	54
489.000	49
490.000	39
491.000	34
492.000	26
493.000	22
494.000	18
495.000	16
496.000	17
497.000	12
498.000	16
499.000	15
500.000	12
501.000	13
502.000	15
503.000	16
504.000	15
505.000	15
506.000	17
507.000	16
508.000	18
509.000	17
510.000	18
511.000	19
512.000	20
513.000	19
514.000	22
515.000	20
516.000	22
517.000	25
518.000	25
519.000	25
520.000	28
521.000	28
522.000	36
523.000	34
524.000	34
525.000	35
526.000	39
527.000	41
528.000	37
529.000	42
530.000	38
531.000	41
532.000	37
533.000	35
534.000	31
535.000	33
536.000	31
537.000	24
538.000	20
539.000	25
540.000	26
541.000	26
542.000	21
543.000	20
544.000	22
545.000	20
546.000	20
547.000	21
548.000	22
549.000	20
550.000	23
551.000	19
552.000	21
553.000	24
554.000	22
555.000	24
556.000	22
557.000	25
558.000	26
559.000	27
560.000	27
561.000	29
562.000	26
563.000	30
564.000	34
565.000	38
566.000	41
567.000	44
568.000	52
569.000	60
570.000	67
571.000	82
572.000	88
573.000	89
574.000	101
575.000	102
576.000	106
577.000	110
578.000	105
579.000	98
580.000	92
581.000	82
582.000	75
583.000	70
584.000	60
585.000	52
586.000	42
587.000	40
588.000	35
589.000	33
590.000	33
591.000	31
592.000	28
593.000	30
594.000	32
595.000	28
596.000	35
597.000	33
598.000	34
599.000	35
600.000	36
601.000	45
602.000	42
603.000	49
604.000	57
605.000	71
606.000	87
607.000	113
608.000	157
609.000	210
610.000	311
611.000	436
612.000	630
613.000	903
614.000	1255
615.000	1676
616.000	2239
617.000	2902
618.000	3651
619.000	4480
620.000	5295
621.000	6069
622.000	6825
623.000	7483
624.000	7860
625.000	8141
626.000	7994
627.000	7751
628.000	7251
629.000	6587
630.000	5833
631.000	4958
632.000	4133
633.000	3360
634.000	2636
635.000	2013
636.000	1512
637.000	1085
638.000	764
639.000	533
640.000	381
641.000	260
642.000	180
643.000	134
644.000	99
645.000	81
646.000	69
647.000	60
648.000	56
649.000	54
650.000	51
651.000	48
652.000	53
653.000	49
654.000	51
655.000	47
656.000	49
657.000	53
658.000	54
659.000	51
660.000	51
661.000	56
662.000	55
663.000	57
664.000	60
665.000	62
666.000	63
667.000	70
668.000	70
669.000	79
670.000	83
671.000	86
672.000	101
673.000	112
674.000	136
675.000	175
676.000	200
677.000	240
678.000	320
679.000	390
680.000	492
681.000	597
682.000	707
683.000	831
684.000	952
685.000	1052
686.000	1173
687.000	1257
688.000	1297
689.000	1300
690.000	1299
691.000	1250
692.000	1195
693.000	1100
694.000	959
695.000	849
696.000	732
697.000	594
698.000	497
699.000	412
700.000	304
701.000	242
702.000	186
703.000	142
704.000	111
705.000	88
706.000	74
707.000	59
708.000	55
709.000	52
710.000	49
711.000	49
712.000	44
713.000	54
714.000	50
715.000	47
716.000	52
717.000	52
718.000	54
719.000	57
720.000	62
721.000	55
722.000	58
723.000	65
724.000	67
725.000	70
726.000	70
727.000	70
728.000	69
729.000	69
730.000	71
731.000	74
732.000	68
733.000	71
734.000	66
735.000	67
736.000	61
737.000	61
738.000	58
739.000	57
740.000	58
741.000	56
742.000	58
743.000	59
744.000	54
745.000	53
746.000	50
747.000	54
748.000	53
749.000	51
750.000	49
751.000	55
752.000	48
753.000	51
754.000	53
755.000	50
756.000	49
757.000	51
758.000	55
759.000	53
760.000	52
761.000	53
762.000	55
763.000	52
764.000	52
765.000	51
766.000	55
767.000	56
768.000	57
769.000	54
770.000	59
771.000	56
772.000	59
773.000	64
774.000	63
775.000	66
776.000	68
777.000	72
778.000	76
779.000	77
780.000	78
781.000	81
782.000	90
783.000	88
784.000	93
785.000	96
786.000	100
787.000	101
788.000	100
789.000	96
790.000	100
791.000	107
792.000	104
793.000	103
794.000	104
795.000	110
796.000	110
797.000	111
798.000	112
799.000	109
800.000	109
801.000	116
802.000	110
803.000	117
804.000	115
805.000	124
806.000	127
807.000	133
808.000	137
809.000	149
810.000	159
811.000	175
812.000	174
813.000	191
814.000	205
815.000	221
816.000	226
817.000	229
818.000	242
819.000	245
820.000	246
821.000	234
822.000	227
823.000	230
824.000	211
825.000	199
826.000	181
827.000	175
828.000	160
829.000	145
830.000	140
831.000	126
832.000	118
833.000	109
834.000	107
835.000	113
836.000	108
837.000	102
838.000	107
839.000	103
840.000	101
841.000	102
842.000	102
843.000	100
844.000	105
845.000	107
846.000	105
847.000	104
848.000	105
849.000	102
850.000	101
851.000	92
852.000	92
853.000	93
854.000	92
855.000	90
856.000	89
857.000	91
858.000	95
859.000	91
860.000	93
861.000	91
862.000	94
863.000	90
864.000	96
865.000	94
866.000	94
867.000	93
868.000	92
869.000	93
870.000	94
871.000	100
872.000	96
873.000	95
874.000	98
875.000	92
876.000	94
877.000	94
878.000	100
879.000	94
880.000	94
881.000	101
882.000	98
883.000	96
884.000	98
885.000	102
886.000	102
887.000	101
888.000	104
889.000	106
890.000	102
891.000	100
892.000	106
893.000	110
894.000	107
895.000	115
896.000	112
897.000	111
898.000	109
899.000	117
900.000	121
901.000	126
902.000	122
903.000	125
904.000	129
905.000	129
906.000	132
907.000	130
908.000	134
909.000	136
910.000	133
911.000	139
912.000	132
913.000	144
914.000	145
915.000	141
916.000	132
917.000	143
918.000	144
919.000	140
920.000	143
921.000	145
922.000	144
923.000	148
924.000	141
925.000	152
926.000	151
927.000	150
928.000	151
929.000	157
930.000	163
931.000	173
932.000	168
933.000	175
934.000	179
935.000	176
936.000	188
937.000	193
938.000	199
939.000	201
940.000	214
941.000	213
942.000	209
943.000	226
944.000	214
945.000	212
946.000	215
947.000	205
948.000	195
949.000	204
950.000	197
951.000	188
952.000	177
953.000	176
954.000	171
955.000	167
956.000	161
957.000	158
958.000	147
959.000	149
960.000	145
961.000	149
962.000	146
963.000	148
964.000	154
965.000	148
966.000	159
967.000	156
968.000	154
969.000	158
970.000	156
971.000	152
972.000	159
973.000	149
974.000	152
975.000	147
976.000	147
977.000	150
978.000	142
979.000	137
980.000	139
981.000	134
982.000	134
983.000	124
984.000	132
985.000	127
986.000	123
987.000	125
988.000	125
989.000	118
990.000	117
991.000	119
992.000	121
993.000	119
994.000	112
995.000	115
996.000	113
997.000	112
998.000	114
999.000	112
1000.000	113
1001.000	117
1002.000	115
1003.000	113
1004.000	112
1005.000	112
1006.000	113
1007.000	110
1008.000	114
1009.000	107
1010.000	116
1011.000	117
1012.000	116
1013.000	117
1014.000	107
1015.000	109
1016.000	117
1017.000	121
1018.000	121
1019.000	119
1020.000	122
1021.000	114
1022.000	125
1023.000	118
1024.000	119
1025.000	125
1026.000	122
1027.000	129
1028.000	123
1029.000	120
1030.000	121
1031.000	124
1032.000	123
1033.000	121
1034.000	121
1035.000	120
1036.000	126
1037.000	122
1038.000	121
1039.000	119
1040.000	122
1041.000	115
1042.000	115
1043.000	120
1044.000	122
1045.000	129
1046.000	119
1047.000	114
1048.000	123
1049.000	120
1050.000	130
1051.000	121
1052.000	127
1053.000	123
1054.000	131
1055.000	132
1056.000	126
1057.000	117
1058.000	121
1059.000	121
1060.000	135
1061.000	122
1062.000	131
1063.000	137
1064.000	135
1065.000	126
1066.000	129
1067.000	127
1068.000	127
1069.000	130
1070.000	127
1071.000	127
1072.000	127
1073.000	125
1074.000	128
1075.000	129
1076.000	126
1077.000	125
1078.000	129
1079.000	136
1080.000	126
1081.000	130
1082.000	121
1083.000	127
1084.000	128
1085.000	132
1086.000	131
1087.000	133
1088.000	129
1089.000	138
1090.000	133
1091.000	141
1092.000	136
1093.000	133
1094.000	140
1095.000	139
1096.000	142
1097.000	136
1098.000	147
1099.000	145
1100.000	144
1101.000	148
1102.000	147
1103.000	152
1104.000	142
1105.000	144
1106.000	146
1107.000	134
1108.000	137
1109.000	134
1110.000	140
1111.000	143
1112.000	139
1113.000	134
1114.000	127
1115.000	134
1116.000	132
1117.000	137
1118.000	133
1119.000	131
1120.000	127
1121.000	130
1122.000	137
1123.000	137
1124.000	133
1125.000	136
1126.000	129
1127.000	134
1128.000	134
1129.000	137
1130.000	130
1131.000	134
1132.000	131
1133.000	137
1134.000	139
1135.000	132
1136.000	135
1137.000	140
1138.000	131
1139.000	139
1140.000	144
1141.000	131
1142.000	137
1143.000	141
1144.000	138
1145.000	141
1146.000	141
1147.000	135
1148.000	138
1149.000	133
1150.000	140
1151.000	137
1152.000	136
1153.000	138
1154.000	141
1155.000	140
1156.000	135
1157.000	145
1158.000	139
1159.000	144
1160.000	145
1161.000	143
1162.000	139
1163.000	142
1164.000	139
1165.000	147
1166.000	138
1167.000	143
1168.000	146
1169.000	138
1170.000	139
1171.000	136
1172.000	138
1173.000	135
1174.000	133
1175.000	142
1176.000	137
1177.000	134
1178.000	128
1179.000	137
1180.000	129
1181.000	131
1182.000	138
1183.000	130
1184.000	134
1185.000	130
1186.000	124
1187.000	138
1188.000	138
1189.000	139
1190.000	131
1191.000	137
1192.000	134
1193.000	136
1194.000	134
1195.000	137
1196.000	137
1197.000	131
1198.000	135
1199.000	134
1200.000	136
1201.000	135
1202.000	127
1203.000	136
1204.000	133
1205.000	132
1206.000	142
1207.000	133
1208.000	127
1209.000	144
1210.000	143
1211.000	134
1212.000	140
1213.000	135
1214.000	136
1215.000	139
1216.000	140
1217.000	143
1218.000	140
1219.000	135
1220.000	134
1221.000	138
1222.000	140
1223.000	136
1224.000	139
1225.000	142
1226.000	145
1227.000	144
1228.000	140
1229.000	139
1230.000	144
1231.000	137
1232.000	142
1233.000	144
1234.000	141
1235.000	142
1236.000	147
1237.000	152
1238.000	136
1239.000	141
1240.000	141
1241.000	145
1242.000	143
1243.000	147
1244.000	140
1245.000	138
1246.000	141
1247.000	147
1248.000	148
1249.000	146
1250.000	144
1251.000	139
1252.000	143
1253.000	140
1254.000	150
1255.000	142
1256.000	149
1257.000	148
1258.000	141
1259.000	141
1260.000	146
1261.000	142
1262.000	148
1263.000	141
1264.000	143
1265.000	141
1266.000	148
1267.000	150
1268.000	146
1269.000	143
1270.000	147
1271.000	142
1272.000	147
1273.000	141
1274.000	141
1275.000	143
1276.000	143
1277.000	149
1278.000	138
1279.000	142
1280.000	142
1281.000	143
1282.000	148
1283.000	141
1284.000	142
1285.000	146
1286.000	147
1287.000	147
1288.000	151
1289.000	146
1290.000	150
1291.000	153
1292.000	160
1293.000	158
1294.000	162
1295.000	163
1296.000	157
1297.000	162
1298.000	163
1299.000	169
1300.000	173
1301.000	175
1302.000	173
1303.000	173
1304.000	178
1305.000	164
1306.000	171
1307.000	173
1308.000	170
1309.000	168
1310.000	168
1311.000	166
1312.000	162
1313.000	162
1314.000	167
1315.000	157
1316.000	156
1317.000	156
1318.000	155
1319.000	156
1320.000	155
1321.000	158
1322.000	149
1323.000	153
1324.000	154
1325.000	151
1326.000	143
1327.000	153
1328.000	152
1329.000	142
1330.000	147
1331.000	147
1332.000	147
1333.000	151
1334.000	152
1335.000	150
1336.000	148
1337.000	149
1338.000	147
1339.000	153
1340.000	156
1341.000	152
1342.000	155
1343.000	150
1344.000	149
1345.000	151
1346.000	145
1347.000	150
1348.000	148
1349.000	148
1350.000	153
1351.000	156
1352.000	158
1353.000	152
1354.000	156
1355.000	166
1356.000	156
1357.000	160
1358.000	160
1359.000	164
1360.000	183
1361.000	187
1362.000	189
1363.000	198
1364.000	218
1365.000	226
1366.000	240
1367.000	257
1368.000	272
1369.000	297
1370.000	310
1371.000	325
1372.000	351
1373.000	383
1374.000	395
1375.000	412
1376.000	428
1377.000	436
1378.000	441
1379.000	460
1380.000	445
1381.000	449
1382.000	441
1383.000	429
1384.000	414
1385.000	401
1386.000	383
1387.000	346
1388.000	330
1389.000	323
1390.000	299
1391.000	271
1392.000	256
1393.000	245
1394.000	234
1395.000	211
1396.000	200
1397.000	189
1398.000	188
1399.000	166
1400.000	160
1401.000	164
1402.000	157
1403.000	157
1404.000	154
1405.000	156
1406.000	157
1407.000	147
1408.000	146
1409.000	138
1410.000	142
1411.000	143
1412.000	144
1413.000	139
1414.000	144
1415.000	148
1416.000	143
1417.000	141
1418.000	146
1419.000	150
1420.000	146
1421.000	145
1422.000	145
1423.000	142
1424.000	143
1425.000	143
1426.000	146
1427.000	145
1428.000	148
1429.000	146
1430.000	148
1431.000	142
1432.000	144
1433.000	145
1434.000	147
1435.000	144
1436.000	148
1437.000	151
1438.000	149
1439.000	145
1440.000	148
1441.000	148
1442.000	149
1443.000	154
1444.000	148
1445.000	150
1446.000	153
1447.000	158
1448.000	154
1449.000	158
1450.000	163
1451.000	158
1452.000	159
1453.000	161
1454.000	164
1455.000	164
1456.000	160
1457.000	170
1458.000	167
1459.000	164
1460.000	169
1461.000	168
1462.000	173
1463.000	166
1464.000	157
1465.000	165
1466.000	155
1467.000	156
1468.000	155
1469.000	157
1470.000	152
1471.000	156
1472.000	156
1473.000	152
1474.000	147
1475.000	159
1476.000	152
1477.000	153
1478.000	152
1479.000	147
1480.000	149
1481.000	154
1482.000	151
1483.000	150
1484.000	156
1485.000	155
1486.000	154
1487.000	147
1488.000	150
1489.000	155
1490.000	155
1491.000	149
1492.000	156
1493.000	156
1494.000	153
1495.000	152
1496.000	153
1497.000	157
1498.000	151
1499.000	152
1500.000	155
1501.000	156
1502.000	160
1503.000	160
1504.000	156
1505.000	159
1506.000	165
1507.000	160
1508.000	159
1509.000	161
1510.000	161
1511.000	162
1512.000	164
1513.000	165
1514.000	170
1515.000	170
1516.000	175
1517.000	174
1518.000	185
1519.000	201
1520.000	197
1521.000	202
1522.000	206
1523.000	216
1524.000	243
1525.000	239
1526.000	254
1527.000	252
1528.000	268
1529.000	281
1530.000	290
1531.000	296
1532.000	309
1533.000	311
1534.000	327
1535.000	328
1536.000	324
1537.000	337
1538.000	338
1539.000	337
1540.000	347
1541.000	344
1542.000	331
1543.000	325
1544.000	332
1545.000	311
1546.000	308
1547.000	298
1548.000	286
1549.000	287
1550.000	277
1551.000	257
1552.000	261
1553.000	254
1554.000	240
1555.000	237
1556.000	229
1557.000	235
1558.000	223
1559.000	229
1560.000	222
1561.000	223
1562.000	226
1563.000	227
1564.000	232
1565.000	236
1566.000	240
1567.000	242
1568.000	238
1569.000	250
1570.000	246
1571.000	244
1572.000	253
1573.000	275
1574.000	276
1575.000	274
1576.000	282
1577.000	281
1578.000	308
1579.000	307
1580.000	320
1581.000	331
1582.000	332
1583.000	346
1584.000	345
1585.000	351
1586.000	362
1587.000	375
1588.000	372
1589.000	388
1590.000	396
1591.000	407
1592.000	414
1593.000	435
1594.000	435
1595.000	446
1596.000	463
1597.000	464
1598.000	483
1599.000	474
1600.000	495
1601.000	496
1602.000	490
1603.000	503
1604.000	505
1605.000	507
1606.000	513
1607.000	514
1608.000	506
1609.000	512
1610.000	525
1611.000	514
1612.000	510
1613.000	501
1614.000	500
1615.000	497
1616.000	502
1617.000	491
1618.000	475
1619.000	489
1620.000	470
1621.000	474
1622.000	456
1623.000	452
1624.000	447
1625.000	438
1626.000	415
1627.000	419
1628.000	399
1629.000	398
1630.000	379
1631.000	380
1632.000	367
1633.000	356
1634.000	346
1635.000	331
1636.000	328
1637.000	315
1638.000	309
1639.000	309
1640.000	297
1641.000	280
1642.000	280
1643.000	274
1644.000	261
1645.000	266
1646.000	242
1647.000	252
1648.000	236
1649.000	229
1650.000	231
1651.000	217
1652.000	216
1653.000	218
1654.000	204
1655.000	208
1656.000	204
1657.000	197
1658.000	190
1659.000	190
1660.000	186
1661.000	180
1662.000	178
1663.000	177
1664.000	176
1665.000	165
1666.000	170
1667.000	164
1668.000	174
1669.000	174
1670.000	169
1671.000	158
1672.000	170
1673.000	167
1674.000	169
1675.000	165
1676.000	168
1677.000	180
1678.000	178
1679.000	172
1680.000	186
1681.000	200
1682.000	211
1683.000	228
1684.000	242
1685.000	248
1686.000	267
1687.000	276
1688.000	304
1689.000	324
1690.000	344
1691.000	361
1692.000	374
1693.000	385
1694.000	407
1695.000	429
1696.000	443
1697.000	455
1698.000	460
1699.000	468
1700.000	487
1701.000	484
1702.000	487
1703.000	482
1704.000	481
1705.000	479
1706.000	455
1707.000	452
1708.000	429
1709.000	408
1710.000	395
1711.000	370
1712.000	358
1713.000	329
1714.000	314
1715.000	292
1716.000	274
1717.000	249
1718.000	240
1719.000	224
1720.000	208
1721.000	201
1722.000	188
1723.000	171
1724.000	169
1725.000	165
1726.000	158
1727.000	172
1728.000	149
1729.000	146
1730.000	143
1731.000	139
1732.000	139
1733.000	139
1734.000	131
1735.000	136
1736.000	132
1737.000	130
1738.000	127
1739.000	123
1740.000	127
1741.000	128
1742.000	127
1743.000	123
1744.000	129
1745.000	121
1746.000	135
1747.000	127
1748.000	127
1749.000	134
1750.000	126
1751.000	124
1752.000	131
1753.000	130
1754.000	139
1755.000	128
1756.000	134
1757.000	133
1758.000	129
1759.000	132
1760.000	130
1761.000	139
1762.000	137
1763.000	131
1764.000	138
1765.000	142
1766.000	138
1767.000	138
1768.000	138
1769.000	144
1770.000	145
1771.000	144
1772.000	146
1773.000	148
1774.000	156
1775.000	148
1776.000	152
1777.000	152
1778.000	159
1779.000	151
1780.000	154
1781.000	156
1782.000	162
1783.000	166
1784.000	159
1785.000	161
1786.000	168
1787.000	163
1788.000	169
1789.000	165
1790.000	161
1791.000	169
1792.000	161
1793.000	170
1794.000	161
1795.000	162
1796.000	173
1797.000	170
1798.000	167
1799.000	168
1800.000	167
1801.000	156
1802.000	163
1803.000	155
1804.000	159
1805.000	163
1806.000	158
1807.000	162
1808.000	161
1809.000	158
1810.000	155
1811.000	157
1812.000	150
1813.000	150
1814.000	143
1815.000	142
1816.000	142
1817.000	141
1818.000	140
1819.000	139
1820.000	130
1821.000	135
1822.000	130
1823.000	129
1824.000	126
1825.000	124
1826.000	121
1827.000	120
1828.000	118
1829.000	121
1830.000	120
1831.000	116
1832.000	109
1833.000	110
1834.000	104
1835.000	109
1836.000	104
1837.000	108
1838.000	103
1839.000	105
1840.000	101
1841.000	99
1842.000	95
1843.000	97
1844.000	98
1845.000	93
1846.000	96
1847.000	83
1848.000	94
1849.000	87
1850.000	89
1851.000	88
1852.000	89
1853.000	87
1854.000	83
1855.000	85
1856.000	78
1857.000	81
1858.000	79
1859.000	80
1860.000	77
1861.000	79
1862.000	75
1863.000	76
1864.000	76
1865.000	73
1866.000	75
1867.000	67
1868.000	72
1869.000	71
1870.000	68
1871.000	72
1872.000	71
1873.000	74
1874.000	71
1875.000	67
1876.000	68
1877.000	68
1878.000	66
1879.000	63
1880.000	67
1881.000	67
1882.000	66
1883.000	67
1884.000	68
1885.000	65
1886.000	67
1887.000	62
1888.000	67
1889.000	66
1890.000	71
1891.000	69
1892.000	66
1893.000	72
1894.000	71
1895.000	72
1896.000	72
1897.000	79
1898.000	86
1899.000	78
1900.000	85
1901.000	89
1902.000	94
1903.000	94
1904.000	99
1905.000	99
1906.000	96
1907.000	108
1908.000	109
1909.000	109
1910.000	110
1911.000	111
1912.000	112
1913.000	108
1914.000	109
1915.000	104
1916.000	106
1917.000	104
1918.000	101
1919.000	96
1920.000	89
1921.000	88
1922.000	82
1923.000	80
1924.000	78
1925.000	75
1926.000	71
1927.000	69
1928.000	65
1929.000	65
1930.000	66
1931.000	62
1932.000	64
1933.000	62
1934.000	58
1935.000	55
1936.000	60
1937.000	59
1938.000	57
1939.000	60
1940.000	61
1941.000	60
1942.000	59
1943.000	63
1944.000	59
1945.000	65
1946.000	58
1947.000	57
1948.000	58
1949.000	58
1950.000	56
1951.000	55
1952.000	53
1953.000	52
1954.000	54
1955.000	55
1956.000	51
1957.000	51
1958.000	50
1959.000	49
1960.000	48
1961.000	48
1962.000	47
1963.000	45
1964.000	46
1965.000	49
1966.000	45
1967.000	46
1968.000	44
1969.000	45
1970.000	45
1971.000	44
1972.000	45
1973.000	46
1974.000	47
1975.000	45
1976.000	45
1977.000	45
1978.000	46
1979.000	43
1980.000	42
1981.000	43
1982.000	45
1983.000	41
1984.000	42
1985.000	41
1986.000	46
1987.000	47
1988.000	42
1989.000	46
1990.000	41
1991.000	41
1992.000	44
1993.000	45
1994.000	42
1995.000	41
1996.000	43
1997.000	46
1998.000	44
1999.000	40
2000.000	41
2001.000	43
2002.000	43
2003.000	41
2004.000	40
2005.000	43
2006.000	39
2007.000	41
2008.000	43
2009.000	42
2010.000	45
2011.000	40
2012.000	40
2013.000	40
2014.000	45
2015.000	43
2016.000	42
2017.000	43
2018.000	39
2019.000	43
2020.000	41
2021.000	44
2022.000	42
2023.000	44
2024.000	40
2025.000	42
2026.000	41
2027.000	44
2028.000	40
2029.000	42
2030.000	38
2031.000	41
2032.000	41
2033.000	42
2034.000	44
2035.000	42
2036.000	38
2037.000	42
2038.000	43
2039.000	40
2040.000	41
2041.000	42
2042.000	37
2043.000	40
2044.000	37
2045.000	37
2046.000	40
2047.000	41
2048.000	0
