Date:	17-Sep-20		Time:	11:47 PM		Version no:	0.00		Project name:	55		Sample name:	222		Section name:	section		Position	0.000000	mm	E0	0.000000	keV	E1	1.000000	keV/channel	sample surface	2.000000	cm	Tube anode:	Mo		Tube voltage:	30	kV	Tube current:	30	mA	gain	15		std. database			resultfile	result		matrix element	11		sample thickness	1.000000		air passage	0.560000	cm	comments	not in position		peaking_time	0.300000	m-sec	trigger_threshold	40.000000	V	mca_bin_width	2.000000	no:	number_mca_channels	2048.000000	no:	gap_time	2048.000000	m-sec	trigger_peaking_time	2048.000000	m-sec	GAINDAC	400		HIGHGAIN	400		TAURC	400		RCTAU	400		RCTAUFRAC	400		livetime	13.014294	seconds	runtime	15.000232	seconds	input_count_rate	80431.410221	cps	output_count_rate	69782.785033	cps	triggers	1173264	seconds	events_in_run	1020480	seconds	channel	content		1.000	0
2.000	0
3.000	0
4.000	0
5.000	0
6.000	0
7.000	0
8.000	0
9.000	0
10.000	0
11.000	0
12.000	0
13.000	0
14.000	0
15.000	0
16.000	0
17.000	0
18.000	0
19.000	0
20.000	0
21.000	0
22.000	0
23.000	0
24.000	0
25.000	0
26.000	0
27.000	0
28.000	0
29.000	0
30.000	0
31.000	1
32.000	0
33.000	0
34.000	0
35.000	0
36.000	0
37.000	0
38.000	0
39.000	0
40.000	0
41.000	1
42.000	0
43.000	0
44.000	0
45.000	0
46.000	0
47.000	0
48.000	1
49.000	0
50.000	1
51.000	2
52.000	2
53.000	3
54.000	3
55.000	5
56.000	7
57.000	8
58.000	13
59.000	18
60.000	20
61.000	25
62.000	28
63.000	31
64.000	31
65.000	27
66.000	27
67.000	29
68.000	25
69.000	25
70.000	23
71.000	25
72.000	24
73.000	24
74.000	25
75.000	24
76.000	24
77.000	23
78.000	24
79.000	21
80.000	23
81.000	21
82.000	25
83.000	28
84.000	24
85.000	23
86.000	25
87.000	25
88.000	22
89.000	24
90.000	22
91.000	24
92.000	21
93.000	18
94.000	19
95.000	21
96.000	21
97.000	21
98.000	21
99.000	21
100.000	19
101.000	21
102.000	20
103.000	19
104.000	19
105.000	20
106.000	17
107.000	17
108.000	19
109.000	19
110.000	17
111.000	20
112.000	19
113.000	17
114.000	18
115.000	16
116.000	20
117.000	18
118.000	17
119.000	19
120.000	17
121.000	17
122.000	14
123.000	16
124.000	17
125.000	16
126.000	16
127.000	16
128.000	14
129.000	14
130.000	16
131.000	15
132.000	16
133.000	16
134.000	15
135.000	17
136.000	14
137.000	17
138.000	16
139.000	18
140.000	18
141.000	19
142.000	18
143.000	22
144.000	25
145.000	26
146.000	25
147.000	26
148.000	27
149.000	23
150.000	19
151.000	19
152.000	19
153.000	18
154.000	16
155.000	17
156.000	18
157.000	15
158.000	14
159.000	18
160.000	14
161.000	17
162.000	16
163.000	18
164.000	23
165.000	28
166.000	33
167.000	37
168.000	47
169.000	55
170.000	62
171.000	61
172.000	62
173.000	56
174.000	46
175.000	41
176.000	36
177.000	31
178.000	29
179.000	29
180.000	32
181.000	36
182.000	41
183.000	55
184.000	69
185.000	93
186.000	116
187.000	157
188.000	186
189.000	223
190.000	237
191.000	251
192.000	242
193.000	221
194.000	177
195.000	151
196.000	116
197.000	81
198.000	57
199.000	39
200.000	33
201.000	22
202.000	19
203.000	18
204.000	18
205.000	15
206.000	16
207.000	16
208.000	13
209.000	15
210.000	18
211.000	17
212.000	19
213.000	20
214.000	21
215.000	23
216.000	24
217.000	25
218.000	31
219.000	35
220.000	43
221.000	46
222.000	48
223.000	50
224.000	45
225.000	42
226.000	39
227.000	35
228.000	33
229.000	26
230.000	22
231.000	21
232.000	18
233.000	13
234.000	16
235.000	14
236.000	12
237.000	14
238.000	13
239.000	13
240.000	13
241.000	16
242.000	14
243.000	14
244.000	16
245.000	17
246.000	17
247.000	22
248.000	24
249.000	32
250.000	47
251.000	61
252.000	71
253.000	100
254.000	115
255.000	126
256.000	146
257.000	136
258.000	141
259.000	134
260.000	118
261.000	98
262.000	77
263.000	57
264.000	43
265.000	35
266.000	30
267.000	24
268.000	20
269.000	21
270.000	22
271.000	23
272.000	27
273.000	27
274.000	28
275.000	29
276.000	28
277.000	29
278.000	31
279.000	32
280.000	27
281.000	30
282.000	35
283.000	34
284.000	39
285.000	54
286.000	61
287.000	66
288.000	70
289.000	76
290.000	84
291.000	79
292.000	72
293.000	65
294.000	56
295.000	46
296.000	37
297.000	35
298.000	28
299.000	26
300.000	24
301.000	23
302.000	21
303.000	24
304.000	21
305.000	24
306.000	25
307.000	27
308.000	28
309.000	30
310.000	30
311.000	35
312.000	36
313.000	44
314.000	51
315.000	61
316.000	74
317.000	91
318.000	112
319.000	151
320.000	176
321.000	210
322.000	246
323.000	265
324.000	284
325.000	285
326.000	273
327.000	245
328.000	220
329.000	181
330.000	143
331.000	116
332.000	85
333.000	70
334.000	50
335.000	43
336.000	38
337.000	33
338.000	35
339.000	42
340.000	49
341.000	52
342.000	60
343.000	81
344.000	105
345.000	143
346.000	200
347.000	310
348.000	484
349.000	757
350.000	1196
351.000	1842
352.000	2792
353.000	4128
354.000	5824
355.000	7973
356.000	10441
357.000	13105
358.000	15641
359.000	17959
360.000	19642
361.000	20352
362.000	20303
363.000	19180
364.000	17390
365.000	14967
366.000	12310
367.000	9700
368.000	7274
369.000	5240
370.000	3575
371.000	2370
372.000	1507
373.000	927
374.000	579
375.000	341
376.000	238
377.000	180
378.000	171
379.000	180
380.000	212
381.000	286
382.000	380
383.000	518
384.000	687
385.000	911
386.000	1201
387.000	1550
388.000	1890
389.000	2267
390.000	2596
391.000	2816
392.000	3000
393.000	3057
394.000	2933
395.000	2745
396.000	2446
397.000	2088
398.000	1715
399.000	1337
400.000	1010
401.000	723
402.000	494
403.000	335
404.000	212
405.000	130
406.000	83
407.000	52
408.000	32
409.000	19
410.000	16
411.000	9
412.000	11
413.000	8
414.000	8
415.000	9
416.000	7
417.000	7
418.000	7
419.000	7
420.000	7
421.000	8
422.000	7
423.000	9
424.000	7
425.000	9
426.000	9
427.000	12
428.000	15
429.000	19
430.000	26
431.000	37
432.000	48
433.000	63
434.000	81
435.000	105
436.000	127
437.000	146
438.000	171
439.000	183
440.000	200
441.000	207
442.000	186
443.000	194
444.000	180
445.000	148
446.000	131
447.000	110
448.000	87
449.000	68
450.000	55
451.000	50
452.000	39
453.000	36
454.000	31
455.000	32
456.000	29
457.000	27
458.000	25
459.000	23
460.000	23
461.000	19
462.000	17
463.000	16
464.000	16
465.000	15
466.000	15
467.000	14
468.000	14
469.000	15
470.000	16
471.000	18
472.000	18
473.000	23
474.000	27
475.000	28
476.000	30
477.000	34
478.000	36
479.000	40
480.000	43
481.000	53
482.000	49
483.000	48
484.000	50
485.000	44
486.000	41
487.000	35
488.000	32
489.000	29
490.000	27
491.000	25
492.000	18
493.000	18
494.000	16
495.000	15
496.000	15
497.000	15
498.000	12
499.000	16
500.000	17
501.000	15
502.000	14
503.000	17
504.000	16
505.000	15
506.000	17
507.000	17
508.000	19
509.000	20
510.000	17
511.000	20
512.000	19
513.000	17
514.000	21
515.000	20
516.000	22
517.000	23
518.000	24
519.000	20
520.000	23
521.000	29
522.000	29
523.000	32
524.000	37
525.000	34
526.000	38
527.000	43
528.000	40
529.000	41
530.000	39
531.000	39
532.000	40
533.000	38
534.000	31
535.000	29
536.000	30
537.000	27
538.000	23
539.000	25
540.000	20
541.000	19
542.000	19
543.000	18
544.000	21
545.000	20
546.000	17
547.000	19
548.000	19
549.000	22
550.000	20
551.000	22
552.000	22
553.000	20
554.000	23
555.000	21
556.000	23
557.000	26
558.000	26
559.000	26
560.000	27
561.000	28
562.000	29
563.000	36
564.000	39
565.000	48
566.000	53
567.000	62
568.000	75
569.000	83
570.000	100
571.000	112
572.000	125
573.000	146
574.000	154
575.000	154
576.000	165
577.000	157
578.000	147
579.000	140
580.000	129
581.000	119
582.000	99
583.000	90
584.000	77
585.000	65
586.000	53
587.000	48
588.000	36
589.000	35
590.000	32
591.000	31
592.000	26
593.000	29
594.000	25
595.000	30
596.000	29
597.000	27
598.000	31
599.000	30
600.000	30
601.000	35
602.000	36
603.000	36
604.000	42
605.000	44
606.000	56
607.000	75
608.000	95
609.000	133
610.000	179
611.000	249
612.000	352
613.000	489
614.000	693
615.000	915
616.000	1225
617.000	1570
618.000	1956
619.000	2387
620.000	2837
621.000	3288
622.000	3648
623.000	3988
624.000	4235
625.000	4323
626.000	4283
627.000	4146
628.000	3868
629.000	3539
630.000	3128
631.000	2679
632.000	2220
633.000	1800
634.000	1436
635.000	1095
636.000	825
637.000	603
638.000	455
639.000	329
640.000	228
641.000	170
642.000	126
643.000	96
644.000	78
645.000	72
646.000	61
647.000	53
648.000	58
649.000	53
650.000	49
651.000	49
652.000	51
653.000	53
654.000	50
655.000	52
656.000	52
657.000	50
658.000	50
659.000	57
660.000	51
661.000	53
662.000	56
663.000	60
664.000	54
665.000	56
666.000	59
667.000	63
668.000	67
669.000	72
670.000	69
671.000	86
672.000	87
673.000	95
674.000	105
675.000	121
676.000	145
677.000	164
678.000	198
679.000	245
680.000	291
681.000	334
682.000	408
683.000	459
684.000	530
685.000	587
686.000	647
687.000	692
688.000	697
689.000	716
690.000	717
691.000	694
692.000	664
693.000	604
694.000	540
695.000	474
696.000	414
697.000	342
698.000	280
699.000	229
700.000	188
701.000	158
702.000	126
703.000	103
704.000	85
705.000	78
706.000	64
707.000	62
708.000	57
709.000	56
710.000	51
711.000	50
712.000	54
713.000	58
714.000	58
715.000	62
716.000	69
717.000	66
718.000	74
719.000	76
720.000	76
721.000	83
722.000	84
723.000	83
724.000	85
725.000	83
726.000	88
727.000	86
728.000	91
729.000	83
730.000	88
731.000	87
732.000	88
733.000	81
734.000	76
735.000	79
736.000	79
737.000	70
738.000	71
739.000	68
740.000	69
741.000	66
742.000	66
743.000	62
744.000	56
745.000	64
746.000	61
747.000	64
748.000	67
749.000	64
750.000	65
751.000	61
752.000	63
753.000	64
754.000	64
755.000	65
756.000	64
757.000	65
758.000	67
759.000	63
760.000	66
761.000	64
762.000	66
763.000	67
764.000	63
765.000	71
766.000	62
767.000	65
768.000	63
769.000	69
770.000	71
771.000	69
772.000	78
773.000	76
774.000	76
775.000	82
776.000	82
777.000	90
778.000	86
779.000	93
780.000	97
781.000	104
782.000	108
783.000	108
784.000	116
785.000	114
786.000	116
787.000	119
788.000	117
789.000	124
790.000	126
791.000	128
792.000	127
793.000	131
794.000	124
795.000	125
796.000	128
797.000	125
798.000	133
799.000	129
800.000	130
801.000	132
802.000	129
803.000	136
804.000	136
805.000	147
806.000	144
807.000	149
808.000	160
809.000	174
810.000	174
811.000	187
812.000	215
813.000	219
814.000	228
815.000	248
816.000	251
817.000	268
818.000	279
819.000	285
820.000	289
821.000	291
822.000	272
823.000	255
824.000	241
825.000	232
826.000	212
827.000	196
828.000	188
829.000	175
830.000	156
831.000	140
832.000	133
833.000	132
834.000	125
835.000	124
836.000	117
837.000	121
838.000	123
839.000	116
840.000	118
841.000	119
842.000	114
843.000	124
844.000	122
845.000	119
846.000	117
847.000	121
848.000	115
849.000	121
850.000	113
851.000	119
852.000	106
853.000	108
854.000	109
855.000	105
856.000	111
857.000	106
858.000	110
859.000	107
860.000	106
861.000	109
862.000	106
863.000	109
864.000	109
865.000	114
866.000	109
867.000	112
868.000	108
869.000	106
870.000	108
871.000	111
872.000	104
873.000	107
874.000	112
875.000	112
876.000	108
877.000	112
878.000	110
879.000	107
880.000	109
881.000	107
882.000	113
883.000	110
884.000	104
885.000	109
886.000	105
887.000	108
888.000	106
889.000	114
890.000	105
891.000	110
892.000	112
893.000	117
894.000	117
895.000	120
896.000	125
897.000	121
898.000	126
899.000	132
900.000	133
901.000	134
902.000	136
903.000	133
904.000	139
905.000	138
906.000	142
907.000	143
908.000	142
909.000	151
910.000	145
911.000	155
912.000	163
913.000	154
914.000	154
915.000	155
916.000	163
917.000	160
918.000	162
919.000	160
920.000	163
921.000	167
922.000	161
923.000	171
924.000	165
925.000	171
926.000	172
927.000	177
928.000	176
929.000	172
930.000	188
931.000	189
932.000	182
933.000	193
934.000	199
935.000	204
936.000	213
937.000	223
938.000	228
939.000	244
940.000	241
941.000	235
942.000	244
943.000	247
944.000	243
945.000	237
946.000	236
947.000	229
948.000	230
949.000	226
950.000	216
951.000	218
952.000	199
953.000	193
954.000	194
955.000	188
956.000	182
957.000	178
958.000	165
959.000	175
960.000	172
961.000	166
962.000	167
963.000	162
964.000	165
965.000	168
966.000	170
967.000	170
968.000	168
969.000	170
970.000	175
971.000	174
972.000	175
973.000	173
974.000	174
975.000	173
976.000	164
977.000	165
978.000	163
979.000	159
980.000	150
981.000	159
982.000	153
983.000	147
984.000	149
985.000	148
986.000	137
987.000	141
988.000	134
989.000	138
990.000	130
991.000	131
992.000	130
993.000	134
994.000	126
995.000	131
996.000	132
997.000	132
998.000	130
999.000	129
1000.000	125
1001.000	123
1002.000	133
1003.000	126
1004.000	129
1005.000	120
1006.000	126
1007.000	125
1008.000	124
1009.000	123
1010.000	126
1011.000	122
1012.000	123
1013.000	129
1014.000	127
1015.000	127
1016.000	128
1017.000	130
1018.000	125
1019.000	129
1020.000	128
1021.000	128
1022.000	135
1023.000	131
1024.000	136
1025.000	136
1026.000	129
1027.000	130
1028.000	134
1029.000	132
1030.000	126
1031.000	135
1032.000	129
1033.000	132
1034.000	140
1035.000	134
1036.000	136
1037.000	140
1038.000	139
1039.000	137
1040.000	136
1041.000	145
1042.000	141
1043.000	135
1044.000	134
1045.000	138
1046.000	145
1047.000	143
1048.000	147
1049.000	141
1050.000	139
1051.000	135
1052.000	146
1053.000	138
1054.000	148
1055.000	150
1056.000	146
1057.000	145
1058.000	143
1059.000	146
1060.000	146
1061.000	148
1062.000	153
1063.000	146
1064.000	144
1065.000	150
1066.000	147
1067.000	151
1068.000	151
1069.000	150
1070.000	148
1071.000	149
1072.000	149
1073.000	149
1074.000	149
1075.000	150
1076.000	145
1077.000	151
1078.000	146
1079.000	144
1080.000	149
1081.000	142
1082.000	149
1083.000	147
1084.000	145
1085.000	145
1086.000	144
1087.000	151
1088.000	150
1089.000	142
1090.000	151
1091.000	153
1092.000	148
1093.000	154
1094.000	164
1095.000	157
1096.000	161
1097.000	161
1098.000	158
1099.000	163
1100.000	159
1101.000	163
1102.000	163
1103.000	168
1104.000	167
1105.000	158
1106.000	163
1107.000	155
1108.000	160
1109.000	159
1110.000	159
1111.000	157
1112.000	158
1113.000	151
1114.000	147
1115.000	153
1116.000	150
1117.000	148
1118.000	154
1119.000	148
1120.000	151
1121.000	148
1122.000	149
1123.000	150
1124.000	153
1125.000	158
1126.000	153
1127.000	155
1128.000	153
1129.000	149
1130.000	148
1131.000	152
1132.000	150
1133.000	155
1134.000	152
1135.000	153
1136.000	150
1137.000	153
1138.000	159
1139.000	157
1140.000	152
1141.000	155
1142.000	160
1143.000	157
1144.000	156
1145.000	157
1146.000	153
1147.000	162
1148.000	166
1149.000	160
1150.000	159
1151.000	166
1152.000	168
1153.000	161
1154.000	165
1155.000	165
1156.000	169
1157.000	179
1158.000	175
1159.000	163
1160.000	171
1161.000	180
1162.000	174
1163.000	176
1164.000	173
1165.000	172
1166.000	162
1167.000	175
1168.000	171
1169.000	170
1170.000	162
1171.000	166
1172.000	157
1173.000	156
1174.000	165
1175.000	161
1176.000	157
1177.000	159
1178.000	154
1179.000	149
1180.000	150
1181.000	155
1182.000	151
1183.000	153
1184.000	154
1185.000	154
1186.000	152
1187.000	152
1188.000	152
1189.000	158
1190.000	150
1191.000	156
1192.000	153
1193.000	151
1194.000	152
1195.000	146
1196.000	153
1197.000	151
1198.000	160
1199.000	152
1200.000	150
1201.000	151
1202.000	143
1203.000	155
1204.000	152
1205.000	157
1206.000	155
1207.000	149
1208.000	152
1209.000	157
1210.000	153
1211.000	158
1212.000	153
1213.000	152
1214.000	158
1215.000	158
1216.000	158
1217.000	160
1218.000	153
1219.000	157
1220.000	156
1221.000	162
1222.000	164
1223.000	153
1224.000	160
1225.000	155
1226.000	156
1227.000	163
1228.000	158
1229.000	159
1230.000	168
1231.000	160
1232.000	158
1233.000	160
1234.000	166
1235.000	165
1236.000	158
1237.000	168
1238.000	161
1239.000	160
1240.000	162
1241.000	163
1242.000	168
1243.000	156
1244.000	155
1245.000	163
1246.000	161
1247.000	162
1248.000	158
1249.000	158
1250.000	164
1251.000	159
1252.000	161
1253.000	164
1254.000	161
1255.000	158
1256.000	161
1257.000	164
1258.000	157
1259.000	157
1260.000	161
1261.000	161
1262.000	160
1263.000	151
1264.000	153
1265.000	150
1266.000	158
1267.000	152
1268.000	158
1269.000	162
1270.000	159
1271.000	161
1272.000	156
1273.000	162
1274.000	160
1275.000	157
1276.000	162
1277.000	157
1278.000	160
1279.000	160
1280.000	161
1281.000	160
1282.000	155
1283.000	166
1284.000	163
1285.000	151
1286.000	161
1287.000	158
1288.000	162
1289.000	162
1290.000	165
1291.000	163
1292.000	161
1293.000	174
1294.000	163
1295.000	169
1296.000	173
1297.000	171
1298.000	172
1299.000	183
1300.000	180
1301.000	178
1302.000	174
1303.000	175
1304.000	179
1305.000	180
1306.000	174
1307.000	178
1308.000	169
1309.000	179
1310.000	174
1311.000	173
1312.000	171
1313.000	173
1314.000	173
1315.000	173
1316.000	166
1317.000	165
1318.000	173
1319.000	168
1320.000	167
1321.000	166
1322.000	169
1323.000	166
1324.000	164
1325.000	161
1326.000	169
1327.000	164
1328.000	159
1329.000	161
1330.000	166
1331.000	170
1332.000	159
1333.000	165
1334.000	166
1335.000	168
1336.000	164
1337.000	162
1338.000	163
1339.000	171
1340.000	179
1341.000	171
1342.000	156
1343.000	165
1344.000	162
1345.000	179
1346.000	171
1347.000	163
1348.000	163
1349.000	169
1350.000	169
1351.000	166
1352.000	177
1353.000	173
1354.000	185
1355.000	180
1356.000	180
1357.000	188
1358.000	201
1359.000	212
1360.000	228
1361.000	245
1362.000	264
1363.000	286
1364.000	311
1365.000	339
1366.000	370
1367.000	393
1368.000	437
1369.000	479
1370.000	530
1371.000	576
1372.000	621
1373.000	663
1374.000	688
1375.000	749
1376.000	772
1377.000	784
1378.000	813
1379.000	818
1380.000	818
1381.000	807
1382.000	805
1383.000	776
1384.000	745
1385.000	710
1386.000	675
1387.000	625
1388.000	587
1389.000	534
1390.000	484
1391.000	450
1392.000	402
1393.000	371
1394.000	319
1395.000	311
1396.000	274
1397.000	256
1398.000	236
1399.000	220
1400.000	207
1401.000	192
1402.000	192
1403.000	178
1404.000	170
1405.000	170
1406.000	173
1407.000	167
1408.000	168
1409.000	166
1410.000	165
1411.000	159
1412.000	163
1413.000	163
1414.000	160
1415.000	158
1416.000	161
1417.000	163
1418.000	162
1419.000	158
1420.000	162
1421.000	163
1422.000	162
1423.000	158
1424.000	165
1425.000	158
1426.000	165
1427.000	169
1428.000	167
1429.000	165
1430.000	158
1431.000	161
1432.000	166
1433.000	165
1434.000	163
1435.000	160
1436.000	158
1437.000	170
1438.000	166
1439.000	155
1440.000	167
1441.000	166
1442.000	163
1443.000	161
1444.000	170
1445.000	161
1446.000	170
1447.000	170
1448.000	174
1449.000	176
1450.000	176
1451.000	178
1452.000	171
1453.000	170
1454.000	165
1455.000	173
1456.000	170
1457.000	179
1458.000	175
1459.000	172
1460.000	177
1461.000	176
1462.000	174
1463.000	181
1464.000	165
1465.000	175
1466.000	175
1467.000	173
1468.000	176
1469.000	169
1470.000	170
1471.000	174
1472.000	172
1473.000	174
1474.000	169
1475.000	157
1476.000	173
1477.000	171
1478.000	167
1479.000	178
1480.000	165
1481.000	169
1482.000	168
1483.000	169
1484.000	177
1485.000	164
1486.000	178
1487.000	169
1488.000	168
1489.000	172
1490.000	168
1491.000	168
1492.000	173
1493.000	183
1494.000	165
1495.000	175
1496.000	169
1497.000	170
1498.000	167
1499.000	166
1500.000	172
1501.000	174
1502.000	174
1503.000	169
1504.000	171
1505.000	178
1506.000	172
1507.000	175
1508.000	185
1509.000	171
1510.000	178
1511.000	179
1512.000	177
1513.000	180
1514.000	174
1515.000	177
1516.000	182
1517.000	179
1518.000	180
1519.000	190
1520.000	182
1521.000	194
1522.000	189
1523.000	195
1524.000	198
1525.000	198
1526.000	199
1527.000	204
1528.000	206
1529.000	213
1530.000	217
1531.000	237
1532.000	243
1533.000	254
1534.000	255
1535.000	256
1536.000	272
1537.000	284
1538.000	277
1539.000	293
1540.000	304
1541.000	304
1542.000	312
1543.000	314
1544.000	321
1545.000	313
1546.000	320
1547.000	303
1548.000	312
1549.000	298
1550.000	294
1551.000	293
1552.000	289
1553.000	285
1554.000	258
1555.000	266
1556.000	265
1557.000	263
1558.000	253
1559.000	263
1560.000	256
1561.000	268
1562.000	251
1563.000	261
1564.000	261
1565.000	262
1566.000	261
1567.000	266
1568.000	276
1569.000	274
1570.000	290
1571.000	292
1572.000	301
1573.000	306
1574.000	305
1575.000	313
1576.000	326
1577.000	315
1578.000	339
1579.000	348
1580.000	359
1581.000	356
1582.000	365
1583.000	386
1584.000	403
1585.000	403
1586.000	402
1587.000	423
1588.000	439
1589.000	439
1590.000	460
1591.000	461
1592.000	468
1593.000	481
1594.000	503
1595.000	512
1596.000	519
1597.000	520
1598.000	533
1599.000	540
1600.000	545
1601.000	537
1602.000	561
1603.000	570
1604.000	553
1605.000	563
1606.000	584
1607.000	575
1608.000	571
1609.000	584
1610.000	575
1611.000	553
1612.000	581
1613.000	572
1614.000	561
1615.000	558
1616.000	531
1617.000	546
1618.000	530
1619.000	523
1620.000	518
1621.000	507
1622.000	494
1623.000	488
1624.000	487
1625.000	472
1626.000	454
1627.000	452
1628.000	440
1629.000	425
1630.000	418
1631.000	399
1632.000	392
1633.000	372
1634.000	364
1635.000	363
1636.000	354
1637.000	340
1638.000	337
1639.000	328
1640.000	304
1641.000	298
1642.000	300
1643.000	286
1644.000	271
1645.000	264
1646.000	262
1647.000	257
1648.000	256
1649.000	237
1650.000	237
1651.000	226
1652.000	228
1653.000	225
1654.000	223
1655.000	216
1656.000	209
1657.000	209
1658.000	202
1659.000	194
1660.000	191
1661.000	200
1662.000	189
1663.000	186
1664.000	177
1665.000	181
1666.000	175
1667.000	179
1668.000	178
1669.000	175
1670.000	168
1671.000	169
1672.000	176
1673.000	177
1674.000	179
1675.000	182
1676.000	182
1677.000	184
1678.000	193
1679.000	205
1680.000	197
1681.000	222
1682.000	230
1683.000	242
1684.000	252
1685.000	266
1686.000	295
1687.000	310
1688.000	320
1689.000	351
1690.000	358
1691.000	377
1692.000	411
1693.000	441
1694.000	448
1695.000	460
1696.000	478
1697.000	508
1698.000	512
1699.000	526
1700.000	533
1701.000	545
1702.000	534
1703.000	543
1704.000	508
1705.000	518
1706.000	509
1707.000	488
1708.000	474
1709.000	445
1710.000	411
1711.000	405
1712.000	364
1713.000	344
1714.000	321
1715.000	304
1716.000	282
1717.000	258
1718.000	241
1719.000	224
1720.000	205
1721.000	193
1722.000	176
1723.000	174
1724.000	170
1725.000	161
1726.000	150
1727.000	147
1728.000	145
1729.000	142
1730.000	142
1731.000	138
1732.000	138
1733.000	136
1734.000	136
1735.000	134
1736.000	134
1737.000	136
1738.000	133
1739.000	134
1740.000	134
1741.000	130
1742.000	130
1743.000	134
1744.000	138
1745.000	141
1746.000	139
1747.000	135
1748.000	130
1749.000	136
1750.000	143
1751.000	144
1752.000	138
1753.000	136
1754.000	141
1755.000	145
1756.000	141
1757.000	145
1758.000	141
1759.000	146
1760.000	150
1761.000	156
1762.000	151
1763.000	156
1764.000	143
1765.000	153
1766.000	152
1767.000	152
1768.000	152
1769.000	153
1770.000	164
1771.000	165
1772.000	165
1773.000	161
1774.000	161
1775.000	167
1776.000	169
1777.000	166
1778.000	167
1779.000	180
1780.000	176
1781.000	177
1782.000	172
1783.000	183
1784.000	176
1785.000	190
1786.000	184
1787.000	183
1788.000	186
1789.000	186
1790.000	183
1791.000	182
1792.000	182
1793.000	192
1794.000	184
1795.000	188
1796.000	186
1797.000	185
1798.000	184
1799.000	188
1800.000	180
1801.000	180
1802.000	177
1803.000	180
1804.000	172
1805.000	179
1806.000	171
1807.000	178
1808.000	174
1809.000	173
1810.000	170
1811.000	172
1812.000	163
1813.000	166
1814.000	167
1815.000	160
1816.000	158
1817.000	148
1818.000	148
1819.000	147
1820.000	145
1821.000	144
1822.000	138
1823.000	144
1824.000	143
1825.000	135
1826.000	135
1827.000	127
1828.000	129
1829.000	127
1830.000	128
1831.000	125
1832.000	120
1833.000	123
1834.000	114
1835.000	118
1836.000	110
1837.000	110
1838.000	113
1839.000	115
1840.000	110
1841.000	110
1842.000	110
1843.000	104
1844.000	98
1845.000	104
1846.000	106
1847.000	97
1848.000	102
1849.000	95
1850.000	94
1851.000	94
1852.000	91
1853.000	90
1854.000	92
1855.000	85
1856.000	89
1857.000	89
1858.000	87
1859.000	86
1860.000	85
1861.000	87
1862.000	84
1863.000	78
1864.000	77
1865.000	77
1866.000	81
1867.000	79
1868.000	77
1869.000	82
1870.000	75
1871.000	79
1872.000	77
1873.000	76
1874.000	72
1875.000	77
1876.000	76
1877.000	74
1878.000	79
1879.000	73
1880.000	70
1881.000	73
1882.000	76
1883.000	74
1884.000	69
1885.000	69
1886.000	70
1887.000	71
1888.000	71
1889.000	72
1890.000	73
1891.000	74
1892.000	74
1893.000	73
1894.000	79
1895.000	83
1896.000	80
1897.000	87
1898.000	83
1899.000	88
1900.000	95
1901.000	98
1902.000	102
1903.000	100
1904.000	106
1905.000	107
1906.000	115
1907.000	106
1908.000	118
1909.000	121
1910.000	118
1911.000	122
1912.000	126
1913.000	119
1914.000	118
1915.000	114
1916.000	109
1917.000	112
1918.000	105
1919.000	105
1920.000	96
1921.000	96
1922.000	94
1923.000	93
1924.000	85
1925.000	79
1926.000	78
1927.000	74
1928.000	75
1929.000	71
1930.000	74
1931.000	74
1932.000	71
1933.000	64
1934.000	68
1935.000	64
1936.000	63
1937.000	64
1938.000	67
1939.000	69
1940.000	64
1941.000	66
1942.000	66
1943.000	63
1944.000	61
1945.000	63
1946.000	65
1947.000	66
1948.000	63
1949.000	63
1950.000	65
1951.000	62
1952.000	60
1953.000	59
1954.000	64
1955.000	56
1956.000	55
1957.000	57
1958.000	56
1959.000	53
1960.000	54
1961.000	55
1962.000	52
1963.000	46
1964.000	48
1965.000	52
1966.000	49
1967.000	51
1968.000	51
1969.000	53
1970.000	50
1971.000	48
1972.000	51
1973.000	47
1974.000	48
1975.000	49
1976.000	47
1977.000	48
1978.000	48
1979.000	48
1980.000	47
1981.000	48
1982.000	48
1983.000	48
1984.000	50
1985.000	53
1986.000	52
1987.000	48
1988.000	53
1989.000	52
1990.000	45
1991.000	50
1992.000	48
1993.000	49
1994.000	50
1995.000	46
1996.000	48
1997.000	47
1998.000	48
1999.000	50
2000.000	50
2001.000	49
2002.000	46
2003.000	46
2004.000	47
2005.000	50
2006.000	45
2007.000	50
2008.000	48
2009.000	48
2010.000	45
2011.000	48
2012.000	45
2013.000	47
2014.000	47
2015.000	47
2016.000	49
2017.000	45
2018.000	47
2019.000	50
2020.000	44
2021.000	43
2022.000	44
2023.000	46
2024.000	42
2025.000	44
2026.000	46
2027.000	45
2028.000	44
2029.000	43
2030.000	45
2031.000	49
2032.000	47
2033.000	42
2034.000	44
2035.000	45
2036.000	49
2037.000	44
2038.000	46
2039.000	47
2040.000	48
2041.000	48
2042.000	45
2043.000	45
2044.000	40
2045.000	47
2046.000	43
2047.000	43
2048.000	0
