Date:	17-Sep-20		Time:	11:47 PM		Version no:	0.00		Project name:	55		Sample name:	222		Section name:	section		Position	0.000000	mm	E0	0.000000	keV	E1	1.000000	keV/channel	sample surface	2.000000	cm	Tube anode:	Mo		Tube voltage:	30	kV	Tube current:	30	mA	gain	15		std. database			resultfile	result		matrix element	11		sample thickness	1.000000		air passage	0.560000	cm	comments	not in position		peaking_time	0.300000	m-sec	trigger_threshold	40.000000	V	mca_bin_width	2.000000	no:	number_mca_channels	2048.000000	no:	gap_time	2048.000000	m-sec	trigger_peaking_time	2048.000000	m-sec	GAINDAC	400		HIGHGAIN	400		TAURC	400		RCTAU	400		RCTAUFRAC	400		livetime	13.014294	seconds	runtime	15.000232	seconds	input_count_rate	80431.410221	cps	output_count_rate	69782.785033	cps	triggers	1173264	seconds	events_in_run	1020480	seconds	channel	content		1.000	0
2.000	0
3.000	0
4.000	0
5.000	0
6.000	0
7.000	0
8.000	0
9.000	0
10.000	0
11.000	0
12.000	0
13.000	0
14.000	0
15.000	0
16.000	0
17.000	0
18.000	0
19.000	0
20.000	0
21.000	0
22.000	0
23.000	0
24.000	0
25.000	0
26.000	0
27.000	0
28.000	0
29.000	0
30.000	0
31.000	0
32.000	1
33.000	0
34.000	0
35.000	0
36.000	0
37.000	0
38.000	0
39.000	1
40.000	0
41.000	0
42.000	0
43.000	0
44.000	0
45.000	0
46.000	0
47.000	0
48.000	1
49.000	0
50.000	1
51.000	2
52.000	3
53.000	3
54.000	3
55.000	5
56.000	7
57.000	9
58.000	13
59.000	19
60.000	23
61.000	26
62.000	31
63.000	30
64.000	32
65.000	30
66.000	28
67.000	30
68.000	28
69.000	27
70.000	25
71.000	27
72.000	25
73.000	28
74.000	27
75.000	24
76.000	25
77.000	25
78.000	25
79.000	26
80.000	25
81.000	24
82.000	26
83.000	25
84.000	24
85.000	25
86.000	24
87.000	26
88.000	27
89.000	25
90.000	24
91.000	24
92.000	21
93.000	24
94.000	21
95.000	23
96.000	22
97.000	24
98.000	22
99.000	23
100.000	21
101.000	22
102.000	21
103.000	21
104.000	21
105.000	22
106.000	19
107.000	20
108.000	21
109.000	17
110.000	17
111.000	19
112.000	21
113.000	19
114.000	17
115.000	18
116.000	19
117.000	17
118.000	16
119.000	17
120.000	20
121.000	17
122.000	18
123.000	18
124.000	17
125.000	15
126.000	17
127.000	15
128.000	13
129.000	15
130.000	14
131.000	16
132.000	16
133.000	15
134.000	15
135.000	17
136.000	15
137.000	14
138.000	17
139.000	17
140.000	20
141.000	21
142.000	24
143.000	28
144.000	32
145.000	28
146.000	31
147.000	31
148.000	30
149.000	29
150.000	27
151.000	28
152.000	25
153.000	27
154.000	25
155.000	22
156.000	23
157.000	21
158.000	19
159.000	15
160.000	15
161.000	18
162.000	19
163.000	22
164.000	33
165.000	48
166.000	64
167.000	82
168.000	103
169.000	115
170.000	126
171.000	130
172.000	115
173.000	108
174.000	91
175.000	74
176.000	52
177.000	46
178.000	39
179.000	32
180.000	33
181.000	29
182.000	29
183.000	32
184.000	46
185.000	50
186.000	68
187.000	75
188.000	91
189.000	105
190.000	116
191.000	132
192.000	124
193.000	103
194.000	87
195.000	72
196.000	56
197.000	43
198.000	33
199.000	25
200.000	17
201.000	17
202.000	15
203.000	13
204.000	13
205.000	15
206.000	12
207.000	10
208.000	14
209.000	12
210.000	13
211.000	14
212.000	13
213.000	13
214.000	15
215.000	14
216.000	15
217.000	16
218.000	20
219.000	22
220.000	24
221.000	24
222.000	28
223.000	28
224.000	24
225.000	25
226.000	24
227.000	20
228.000	18
229.000	19
230.000	15
231.000	12
232.000	16
233.000	13
234.000	12
235.000	11
236.000	12
237.000	10
238.000	12
239.000	10
240.000	9
241.000	10
242.000	10
243.000	11
244.000	12
245.000	10
246.000	14
247.000	15
248.000	20
249.000	23
250.000	29
251.000	41
252.000	51
253.000	62
254.000	73
255.000	83
256.000	88
257.000	93
258.000	89
259.000	80
260.000	77
261.000	64
262.000	53
263.000	39
264.000	32
265.000	23
266.000	22
267.000	21
268.000	18
269.000	17
270.000	17
271.000	19
272.000	24
273.000	21
274.000	23
275.000	21
276.000	21
277.000	23
278.000	20
279.000	21
280.000	18
281.000	22
282.000	27
283.000	29
284.000	33
285.000	43
286.000	50
287.000	55
288.000	63
289.000	64
290.000	66
291.000	65
292.000	55
293.000	53
294.000	47
295.000	40
296.000	35
297.000	24
298.000	21
299.000	18
300.000	16
301.000	16
302.000	14
303.000	15
304.000	18
305.000	16
306.000	17
307.000	18
308.000	21
309.000	24
310.000	25
311.000	31
312.000	40
313.000	50
314.000	74
315.000	101
316.000	137
317.000	196
318.000	266
319.000	351
320.000	451
321.000	540
322.000	639
323.000	692
324.000	737
325.000	725
326.000	708
327.000	629
328.000	555
329.000	470
330.000	363
331.000	267
332.000	196
333.000	135
334.000	93
335.000	64
336.000	48
337.000	34
338.000	32
339.000	30
340.000	31
341.000	39
342.000	44
343.000	61
344.000	82
345.000	107
346.000	142
347.000	197
348.000	286
349.000	410
350.000	629
351.000	917
352.000	1373
353.000	1976
354.000	2762
355.000	3718
356.000	4819
357.000	5996
358.000	7186
359.000	8168
360.000	8949
361.000	9294
362.000	9185
363.000	8712
364.000	7937
365.000	6786
366.000	5622
367.000	4406
368.000	3330
369.000	2398
370.000	1638
371.000	1078
372.000	685
373.000	436
374.000	264
375.000	166
376.000	108
377.000	85
378.000	76
379.000	88
380.000	99
381.000	126
382.000	169
383.000	236
384.000	305
385.000	409
386.000	546
387.000	698
388.000	854
389.000	1012
390.000	1158
391.000	1264
392.000	1365
393.000	1348
394.000	1332
395.000	1252
396.000	1102
397.000	932
398.000	770
399.000	598
400.000	447
401.000	337
402.000	229
403.000	151
404.000	105
405.000	64
406.000	44
407.000	28
408.000	18
409.000	13
410.000	12
411.000	9
412.000	10
413.000	8
414.000	9
415.000	10
416.000	10
417.000	8
418.000	9
419.000	10
420.000	9
421.000	9
422.000	10
423.000	10
424.000	14
425.000	15
426.000	18
427.000	22
428.000	32
429.000	44
430.000	65
431.000	93
432.000	120
433.000	175
434.000	221
435.000	285
436.000	351
437.000	432
438.000	494
439.000	544
440.000	565
441.000	585
442.000	582
443.000	553
444.000	492
445.000	437
446.000	375
447.000	301
448.000	249
449.000	190
450.000	146
451.000	116
452.000	91
453.000	77
454.000	68
455.000	58
456.000	56
457.000	49
458.000	45
459.000	43
460.000	36
461.000	34
462.000	29
463.000	27
464.000	27
465.000	25
466.000	23
467.000	25
468.000	29
469.000	31
470.000	37
471.000	37
472.000	46
473.000	48
474.000	54
475.000	64
476.000	73
477.000	84
478.000	92
479.000	95
480.000	111
481.000	116
482.000	114
483.000	118
484.000	110
485.000	105
486.000	97
487.000	82
488.000	71
489.000	64
490.000	54
491.000	45
492.000	36
493.000	31
494.000	28
495.000	27
496.000	24
497.000	22
498.000	22
499.000	21
500.000	22
501.000	20
502.000	22
503.000	20
504.000	23
505.000	25
506.000	26
507.000	27
508.000	26
509.000	31
510.000	29
511.000	31
512.000	32
513.000	33
514.000	35
515.000	37
516.000	37
517.000	37
518.000	40
519.000	35
520.000	41
521.000	44
522.000	46
523.000	48
524.000	52
525.000	49
526.000	52
527.000	57
528.000	55
529.000	54
530.000	57
531.000	55
532.000	54
533.000	48
534.000	46
535.000	42
536.000	41
537.000	41
538.000	36
539.000	30
540.000	29
541.000	29
542.000	32
543.000	30
544.000	30
545.000	27
546.000	26
547.000	27
548.000	27
549.000	28
550.000	29
551.000	29
552.000	31
553.000	31
554.000	32
555.000	31
556.000	32
557.000	33
558.000	33
559.000	37
560.000	35
561.000	41
562.000	46
563.000	55
564.000	62
565.000	78
566.000	97
567.000	114
568.000	141
569.000	171
570.000	202
571.000	238
572.000	284
573.000	308
574.000	325
575.000	350
576.000	362
577.000	341
578.000	342
579.000	312
580.000	285
581.000	252
582.000	223
583.000	182
584.000	155
585.000	128
586.000	104
587.000	85
588.000	74
589.000	62
590.000	54
591.000	53
592.000	48
593.000	42
594.000	44
595.000	43
596.000	46
597.000	44
598.000	48
599.000	50
600.000	51
601.000	56
602.000	58
603.000	63
604.000	72
605.000	81
606.000	101
607.000	132
608.000	180
609.000	243
610.000	352
611.000	491
612.000	693
613.000	975
614.000	1365
615.000	1849
616.000	2437
617.000	3140
618.000	3958
619.000	4804
620.000	5715
621.000	6634
622.000	7453
623.000	8052
624.000	8495
625.000	8711
626.000	8681
627.000	8369
628.000	7838
629.000	7141
630.000	6287
631.000	5397
632.000	4486
633.000	3647
634.000	2864
635.000	2212
636.000	1648
637.000	1207
638.000	865
639.000	613
640.000	428
641.000	306
642.000	224
643.000	160
644.000	126
645.000	99
646.000	91
647.000	77
648.000	74
649.000	69
650.000	66
651.000	71
652.000	65
653.000	68
654.000	68
655.000	62
656.000	67
657.000	68
658.000	69
659.000	67
660.000	70
661.000	68
662.000	72
663.000	78
664.000	74
665.000	78
666.000	82
667.000	82
668.000	90
669.000	97
670.000	101
671.000	115
672.000	124
673.000	146
674.000	172
675.000	200
676.000	240
677.000	294
678.000	354
679.000	430
680.000	535
681.000	660
682.000	768
683.000	906
684.000	1027
685.000	1139
686.000	1269
687.000	1340
688.000	1417
689.000	1431
690.000	1415
691.000	1378
692.000	1290
693.000	1180
694.000	1056
695.000	917
696.000	785
697.000	658
698.000	530
699.000	437
700.000	338
701.000	266
702.000	216
703.000	165
704.000	136
705.000	113
706.000	90
707.000	81
708.000	75
709.000	69
710.000	65
711.000	64
712.000	66
713.000	65
714.000	67
715.000	68
716.000	73
717.000	68
718.000	73
719.000	77
720.000	72
721.000	83
722.000	78
723.000	87
724.000	84
725.000	90
726.000	98
727.000	97
728.000	100
729.000	100
730.000	95
731.000	92
732.000	95
733.000	98
734.000	90
735.000	89
736.000	84
737.000	86
738.000	81
739.000	77
740.000	77
741.000	74
742.000	74
743.000	74
744.000	78
745.000	75
746.000	76
747.000	72
748.000	69
749.000	78
750.000	73
751.000	67
752.000	71
753.000	73
754.000	79
755.000	76
756.000	72
757.000	74
758.000	73
759.000	80
760.000	79
761.000	76
762.000	83
763.000	83
764.000	83
765.000	76
766.000	85
767.000	86
768.000	86
769.000	88
770.000	89
771.000	89
772.000	94
773.000	93
774.000	92
775.000	98
776.000	100
777.000	100
778.000	105
779.000	107
780.000	114
781.000	117
782.000	122
783.000	130
784.000	129
785.000	133
786.000	131
787.000	147
788.000	141
789.000	147
790.000	149
791.000	158
792.000	146
793.000	149
794.000	150
795.000	148
796.000	164
797.000	158
798.000	159
799.000	154
800.000	159
801.000	158
802.000	162
803.000	159
804.000	167
805.000	169
806.000	175
807.000	175
808.000	193
809.000	193
810.000	215
811.000	223
812.000	234
813.000	246
814.000	265
815.000	280
816.000	294
817.000	298
818.000	294
819.000	311
820.000	322
821.000	298
822.000	289
823.000	275
824.000	267
825.000	252
826.000	243
827.000	211
828.000	207
829.000	189
830.000	170
831.000	166
832.000	159
833.000	148
834.000	153
835.000	147
836.000	155
837.000	149
838.000	151
839.000	157
840.000	157
841.000	160
842.000	160
843.000	155
844.000	169
845.000	147
846.000	163
847.000	161
848.000	152
849.000	150
850.000	145
851.000	144
852.000	138
853.000	134
854.000	125
855.000	129
856.000	132
857.000	129
858.000	130
859.000	119
860.000	120
861.000	118
862.000	128
863.000	128
864.000	127
865.000	118
866.000	123
867.000	130
868.000	130
869.000	131
870.000	125
871.000	126
872.000	123
873.000	126
874.000	127
875.000	130
876.000	125
877.000	126
878.000	132
879.000	129
880.000	128
881.000	129
882.000	128
883.000	136
884.000	137
885.000	133
886.000	137
887.000	139
888.000	139
889.000	140
890.000	133
891.000	143
892.000	145
893.000	152
894.000	152
895.000	157
896.000	162
897.000	156
898.000	161
899.000	165
900.000	168
901.000	167
902.000	173
903.000	173
904.000	176
905.000	181
906.000	176
907.000	187
908.000	181
909.000	190
910.000	182
911.000	184
912.000	187
913.000	197
914.000	192
915.000	187
916.000	188
917.000	191
918.000	191
919.000	198
920.000	187
921.000	191
922.000	193
923.000	200
924.000	203
925.000	196
926.000	207
927.000	204
928.000	216
929.000	210
930.000	217
931.000	223
932.000	221
933.000	236
934.000	234
935.000	242
936.000	252
937.000	254
938.000	263
939.000	270
940.000	278
941.000	279
942.000	278
943.000	285
944.000	284
945.000	277
946.000	276
947.000	284
948.000	263
949.000	269
950.000	250
951.000	245
952.000	229
953.000	226
954.000	214
955.000	207
956.000	205
957.000	204
958.000	193
959.000	195
960.000	183
961.000	191
962.000	194
963.000	191
964.000	185
965.000	199
966.000	202
967.000	201
968.000	196
969.000	200
970.000	205
971.000	199
972.000	202
973.000	202
974.000	199
975.000	194
976.000	191
977.000	189
978.000	189
979.000	177
980.000	178
981.000	174
982.000	176
983.000	172
984.000	173
985.000	161
986.000	161
987.000	162
988.000	165
989.000	157
990.000	163
991.000	158
992.000	153
993.000	160
994.000	157
995.000	150
996.000	152
997.000	150
998.000	154
999.000	146
1000.000	156
1001.000	159
1002.000	143
1003.000	151
1004.000	143
1005.000	147
1006.000	148
1007.000	149
1008.000	149
1009.000	145
1010.000	149
1011.000	150
1012.000	150
1013.000	146
1014.000	156
1015.000	148
1016.000	148
1017.000	149
1018.000	157
1019.000	158
1020.000	155
1021.000	156
1022.000	157
1023.000	157
1024.000	158
1025.000	154
1026.000	155
1027.000	160
1028.000	153
1029.000	161
1030.000	158
1031.000	161
1032.000	164
1033.000	159
1034.000	156
1035.000	155
1036.000	157
1037.000	164
1038.000	155
1039.000	159
1040.000	163
1041.000	156
1042.000	158
1043.000	165
1044.000	166
1045.000	168
1046.000	166
1047.000	171
1048.000	172
1049.000	165
1050.000	166
1051.000	169
1052.000	177
1053.000	167
1054.000	167
1055.000	172
1056.000	166
1057.000	174
1058.000	173
1059.000	169
1060.000	170
1061.000	174
1062.000	176
1063.000	182
1064.000	173
1065.000	172
1066.000	172
1067.000	170
1068.000	177
1069.000	176
1070.000	181
1071.000	173
1072.000	174
1073.000	177
1074.000	175
1075.000	179
1076.000	170
1077.000	175
1078.000	173
1079.000	171
1080.000	174
1081.000	172
1082.000	167
1083.000	176
1084.000	177
1085.000	174
1086.000	178
1087.000	171
1088.000	181
1089.000	178
1090.000	179
1091.000	180
1092.000	180
1093.000	179
1094.000	179
1095.000	183
1096.000	185
1097.000	186
1098.000	194
1099.000	186
1100.000	187
1101.000	189
1102.000	188
1103.000	193
1104.000	183
1105.000	192
1106.000	188
1107.000	182
1108.000	173
1109.000	182
1110.000	180
1111.000	177
1112.000	177
1113.000	179
1114.000	178
1115.000	182
1116.000	176
1117.000	170
1118.000	175
1119.000	177
1120.000	176
1121.000	181
1122.000	178
1123.000	180
1124.000	178
1125.000	184
1126.000	175
1127.000	174
1128.000	179
1129.000	177
1130.000	175
1131.000	178
1132.000	182
1133.000	179
1134.000	180
1135.000	184
1136.000	181
1137.000	182
1138.000	178
1139.000	185
1140.000	183
1141.000	186
1142.000	176
1143.000	181
1144.000	183
1145.000	182
1146.000	176
1147.000	181
1148.000	183
1149.000	180
1150.000	186
1151.000	188
1152.000	191
1153.000	190
1154.000	184
1155.000	192
1156.000	195
1157.000	193
1158.000	201
1159.000	198
1160.000	209
1161.000	212
1162.000	206
1163.000	204
1164.000	207
1165.000	206
1166.000	210
1167.000	208
1168.000	202
1169.000	196
1170.000	193
1171.000	191
1172.000	195
1173.000	181
1174.000	187
1175.000	191
1176.000	183
1177.000	179
1178.000	179
1179.000	187
1180.000	182
1181.000	182
1182.000	180
1183.000	180
1184.000	173
1185.000	179
1186.000	180
1187.000	178
1188.000	172
1189.000	180
1190.000	176
1191.000	178
1192.000	186
1193.000	176
1194.000	178
1195.000	181
1196.000	178
1197.000	187
1198.000	183
1199.000	174
1200.000	175
1201.000	180
1202.000	183
1203.000	180
1204.000	182
1205.000	181
1206.000	184
1207.000	175
1208.000	187
1209.000	184
1210.000	181
1211.000	179
1212.000	180
1213.000	185
1214.000	182
1215.000	183
1216.000	182
1217.000	182
1218.000	184
1219.000	193
1220.000	193
1221.000	185
1222.000	183
1223.000	183
1224.000	184
1225.000	188
1226.000	193
1227.000	183
1228.000	187
1229.000	192
1230.000	187
1231.000	183
1232.000	193
1233.000	183
1234.000	194
1235.000	194
1236.000	193
1237.000	189
1238.000	184
1239.000	183
1240.000	187
1241.000	184
1242.000	189
1243.000	183
1244.000	187
1245.000	187
1246.000	194
1247.000	181
1248.000	188
1249.000	192
1250.000	190
1251.000	195
1252.000	201
1253.000	204
1254.000	195
1255.000	189
1256.000	194
1257.000	201
1258.000	197
1259.000	191
1260.000	190
1261.000	191
1262.000	190
1263.000	190
1264.000	189
1265.000	186
1266.000	192
1267.000	200
1268.000	188
1269.000	194
1270.000	192
1271.000	186
1272.000	194
1273.000	190
1274.000	188
1275.000	194
1276.000	191
1277.000	184
1278.000	182
1279.000	195
1280.000	189
1281.000	194
1282.000	193
1283.000	190
1284.000	199
1285.000	197
1286.000	196
1287.000	196
1288.000	197
1289.000	204
1290.000	203
1291.000	202
1292.000	213
1293.000	214
1294.000	218
1295.000	221
1296.000	222
1297.000	231
1298.000	228
1299.000	230
1300.000	231
1301.000	236
1302.000	234
1303.000	239
1304.000	240
1305.000	239
1306.000	246
1307.000	245
1308.000	243
1309.000	227
1310.000	234
1311.000	232
1312.000	217
1313.000	221
1314.000	221
1315.000	213
1316.000	218
1317.000	213
1318.000	203
1319.000	200
1320.000	202
1321.000	197
1322.000	204
1323.000	196
1324.000	198
1325.000	200
1326.000	198
1327.000	202
1328.000	195
1329.000	189
1330.000	194
1331.000	200
1332.000	197
1333.000	189
1334.000	197
1335.000	202
1336.000	196
1337.000	192
1338.000	183
1339.000	197
1340.000	197
1341.000	198
1342.000	194
1343.000	194
1344.000	195
1345.000	194
1346.000	196
1347.000	197
1348.000	198
1349.000	207
1350.000	191
1351.000	203
1352.000	204
1353.000	201
1354.000	209
1355.000	210
1356.000	216
1357.000	219
1358.000	220
1359.000	231
1360.000	233
1361.000	244
1362.000	259
1363.000	260
1364.000	284
1365.000	306
1366.000	336
1367.000	346
1368.000	375
1369.000	398
1370.000	431
1371.000	463
1372.000	475
1373.000	518
1374.000	526
1375.000	553
1376.000	566
1377.000	590
1378.000	607
1379.000	612
1380.000	615
1381.000	627
1382.000	598
1383.000	587
1384.000	575
1385.000	537
1386.000	516
1387.000	489
1388.000	454
1389.000	423
1390.000	411
1391.000	373
1392.000	347
1393.000	323
1394.000	307
1395.000	278
1396.000	261
1397.000	256
1398.000	240
1399.000	230
1400.000	216
1401.000	215
1402.000	215
1403.000	209
1404.000	208
1405.000	199
1406.000	197
1407.000	207
1408.000	199
1409.000	185
1410.000	201
1411.000	199
1412.000	194
1413.000	206
1414.000	197
1415.000	195
1416.000	196
1417.000	198
1418.000	197
1419.000	199
1420.000	187
1421.000	196
1422.000	194
1423.000	193
1424.000	194
1425.000	192
1426.000	191
1427.000	196
1428.000	196
1429.000	195
1430.000	191
1431.000	198
1432.000	201
1433.000	196
1434.000	197
1435.000	198
1436.000	201
1437.000	198
1438.000	203
1439.000	194
1440.000	202
1441.000	191
1442.000	200
1443.000	203
1444.000	203
1445.000	206
1446.000	212
1447.000	206
1448.000	210
1449.000	216
1450.000	209
1451.000	213
1452.000	210
1453.000	221
1454.000	223
1455.000	215
1456.000	217
1457.000	218
1458.000	228
1459.000	222
1460.000	221
1461.000	215
1462.000	216
1463.000	221
1464.000	214
1465.000	210
1466.000	214
1467.000	208
1468.000	220
1469.000	210
1470.000	210
1471.000	206
1472.000	201
1473.000	207
1474.000	203
1475.000	200
1476.000	206
1477.000	202
1478.000	205
1479.000	207
1480.000	209
1481.000	205
1482.000	201
1483.000	192
1484.000	203
1485.000	202
1486.000	201
1487.000	204
1488.000	202
1489.000	204
1490.000	209
1491.000	196
1492.000	201
1493.000	204
1494.000	204
1495.000	201
1496.000	207
1497.000	205
1498.000	207
1499.000	203
1500.000	206
1501.000	211
1502.000	207
1503.000	210
1504.000	208
1505.000	213
1506.000	215
1507.000	208
1508.000	215
1509.000	207
1510.000	219
1511.000	217
1512.000	212
1513.000	219
1514.000	224
1515.000	225
1516.000	227
1517.000	233
1518.000	241
1519.000	246
1520.000	250
1521.000	253
1522.000	273
1523.000	274
1524.000	287
1525.000	296
1526.000	309
1527.000	322
1528.000	327
1529.000	344
1530.000	354
1531.000	359
1532.000	371
1533.000	378
1534.000	390
1535.000	394
1536.000	408
1537.000	410
1538.000	412
1539.000	422
1540.000	401
1541.000	422
1542.000	403
1543.000	396
1544.000	390
1545.000	398
1546.000	379
1547.000	378
1548.000	366
1549.000	361
1550.000	345
1551.000	342
1552.000	344
1553.000	315
1554.000	303
1555.000	322
1556.000	303
1557.000	315
1558.000	303
1559.000	303
1560.000	307
1561.000	301
1562.000	302
1563.000	300
1564.000	319
1565.000	315
1566.000	314
1567.000	322
1568.000	330
1569.000	342
1570.000	348
1571.000	350
1572.000	350
1573.000	367
1574.000	373
1575.000	381
1576.000	396
1577.000	404
1578.000	421
1579.000	424
1580.000	444
1581.000	439
1582.000	464
1583.000	476
1584.000	484
1585.000	509
1586.000	517
1587.000	520
1588.000	540
1589.000	556
1590.000	573
1591.000	592
1592.000	595
1593.000	622
1594.000	616
1595.000	641
1596.000	639
1597.000	661
1598.000	676
1599.000	688
1600.000	706
1601.000	711
1602.000	695
1603.000	729
1604.000	727
1605.000	728
1606.000	742
1607.000	737
1608.000	744
1609.000	752
1610.000	740
1611.000	736
1612.000	743
1613.000	737
1614.000	728
1615.000	708
1616.000	709
1617.000	708
1618.000	690
1619.000	688
1620.000	673
1621.000	658
1622.000	655
1623.000	649
1624.000	619
1625.000	607
1626.000	595
1627.000	574
1628.000	557
1629.000	550
1630.000	523
1631.000	500
1632.000	493
1633.000	482
1634.000	476
1635.000	460
1636.000	438
1637.000	430
1638.000	415
1639.000	403
1640.000	388
1641.000	378
1642.000	365
1643.000	352
1644.000	340
1645.000	344
1646.000	326
1647.000	324
1648.000	299
1649.000	305
1650.000	299
1651.000	280
1652.000	280
1653.000	283
1654.000	270
1655.000	257
1656.000	257
1657.000	256
1658.000	253
1659.000	243
1660.000	243
1661.000	232
1662.000	235
1663.000	231
1664.000	228
1665.000	216
1666.000	219
1667.000	217
1668.000	216
1669.000	210
1670.000	213
1671.000	216
1672.000	215
1673.000	211
1674.000	219
1675.000	228
1676.000	228
1677.000	226
1678.000	231
1679.000	243
1680.000	238
1681.000	254
1682.000	266
1683.000	281
1684.000	293
1685.000	305
1686.000	346
1687.000	356
1688.000	376
1689.000	385
1690.000	418
1691.000	440
1692.000	464
1693.000	485
1694.000	512
1695.000	513
1696.000	540
1697.000	552
1698.000	573
1699.000	583
1700.000	594
1701.000	588
1702.000	594
1703.000	594
1704.000	571
1705.000	567
1706.000	570
1707.000	546
1708.000	525
1709.000	495
1710.000	480
1711.000	445
1712.000	429
1713.000	404
1714.000	372
1715.000	357
1716.000	331
1717.000	320
1718.000	291
1719.000	278
1720.000	264
1721.000	242
1722.000	235
1723.000	234
1724.000	207
1725.000	208
1726.000	196
1727.000	197
1728.000	186
1729.000	181
1730.000	187
1731.000	182
1732.000	175
1733.000	173
1734.000	176
1735.000	174
1736.000	173
1737.000	169
1738.000	172
1739.000	167
1740.000	171
1741.000	167
1742.000	161
1743.000	169
1744.000	163
1745.000	167
1746.000	166
1747.000	168
1748.000	171
1749.000	166
1750.000	170
1751.000	176
1752.000	174
1753.000	175
1754.000	172
1755.000	181
1756.000	175
1757.000	183
1758.000	175
1759.000	184
1760.000	178
1761.000	185
1762.000	181
1763.000	189
1764.000	187
1765.000	195
1766.000	197
1767.000	198
1768.000	193
1769.000	193
1770.000	196
1771.000	198
1772.000	201
1773.000	206
1774.000	190
1775.000	208
1776.000	202
1777.000	210
1778.000	212
1779.000	214
1780.000	213
1781.000	221
1782.000	224
1783.000	230
1784.000	225
1785.000	227
1786.000	222
1787.000	228
1788.000	229
1789.000	224
1790.000	232
1791.000	229
1792.000	226
1793.000	236
1794.000	228
1795.000	215
1796.000	228
1797.000	229
1798.000	226
1799.000	219
1800.000	228
1801.000	224
1802.000	228
1803.000	218
1804.000	223
1805.000	220
1806.000	211
1807.000	210
1808.000	217
1809.000	210
1810.000	206
1811.000	212
1812.000	202
1813.000	205
1814.000	192
1815.000	199
1816.000	202
1817.000	197
1818.000	189
1819.000	189
1820.000	176
1821.000	177
1822.000	174
1823.000	172
1824.000	168
1825.000	173
1826.000	166
1827.000	163
1828.000	161
1829.000	160
1830.000	152
1831.000	139
1832.000	152
1833.000	147
1834.000	147
1835.000	141
1836.000	145
1837.000	136
1838.000	127
1839.000	137
1840.000	133
1841.000	132
1842.000	129
1843.000	121
1844.000	125
1845.000	120
1846.000	118
1847.000	120
1848.000	119
1849.000	114
1850.000	113
1851.000	116
1852.000	107
1853.000	108
1854.000	109
1855.000	108
1856.000	107
1857.000	106
1858.000	107
1859.000	102
1860.000	102
1861.000	105
1862.000	94
1863.000	100
1864.000	94
1865.000	100
1866.000	92
1867.000	94
1868.000	95
1869.000	94
1870.000	95
1871.000	93
1872.000	91
1873.000	91
1874.000	97
1875.000	88
1876.000	95
1877.000	89
1878.000	84
1879.000	91
1880.000	84
1881.000	91
1882.000	80
1883.000	83
1884.000	85
1885.000	85
1886.000	86
1887.000	85
1888.000	84
1889.000	85
1890.000	88
1891.000	92
1892.000	89
1893.000	87
1894.000	94
1895.000	94
1896.000	98
1897.000	93
1898.000	104
1899.000	111
1900.000	110
1901.000	112
1902.000	119
1903.000	119
1904.000	120
1905.000	125
1906.000	129
1907.000	126
1908.000	133
1909.000	131
1910.000	135
1911.000	135
1912.000	135
1913.000	131
1914.000	131
1915.000	129
1916.000	133
1917.000	123
1918.000	122
1919.000	121
1920.000	120
1921.000	113
1922.000	103
1923.000	106
1924.000	95
1925.000	99
1926.000	88
1927.000	90
1928.000	89
1929.000	84
1930.000	85
1931.000	79
1932.000	80
1933.000	85
1934.000	80
1935.000	79
1936.000	79
1937.000	76
1938.000	75
1939.000	78
1940.000	75
1941.000	78
1942.000	80
1943.000	77
1944.000	74
1945.000	80
1946.000	75
1947.000	72
1948.000	76
1949.000	73
1950.000	73
1951.000	73
1952.000	68
1953.000	71
1954.000	75
1955.000	69
1956.000	61
1957.000	62
1958.000	64
1959.000	62
1960.000	65
1961.000	61
1962.000	65
1963.000	67
1964.000	65
1965.000	65
1966.000	63
1967.000	63
1968.000	60
1969.000	61
1970.000	61
1971.000	60
1972.000	64
1973.000	61
1974.000	62
1975.000	60
1976.000	61
1977.000	61
1978.000	59
1979.000	61
1980.000	58
1981.000	62
1982.000	59
1983.000	58
1984.000	57
1985.000	60
1986.000	60
1987.000	58
1988.000	61
1989.000	57
1990.000	62
1991.000	57
1992.000	58
1993.000	57
1994.000	65
1995.000	57
1996.000	59
1997.000	58
1998.000	59
1999.000	55
2000.000	59
2001.000	58
2002.000	55
2003.000	61
2004.000	58
2005.000	57
2006.000	58
2007.000	53
2008.000	55
2009.000	55
2010.000	57
2011.000	61
2012.000	57
2013.000	55
2014.000	56
2015.000	55
2016.000	64
2017.000	55
2018.000	52
2019.000	56
2020.000	53
2021.000	54
2022.000	55
2023.000	57
2024.000	57
2025.000	54
2026.000	61
2027.000	54
2028.000	56
2029.000	55
2030.000	52
2031.000	50
2032.000	55
2033.000	53
2034.000	56
2035.000	54
2036.000	54
2037.000	53
2038.000	54
2039.000	53
2040.000	54
2041.000	58
2042.000	53
2043.000	55
2044.000	56
2045.000	54
2046.000	54
2047.000	57
2048.000	0
