Date:	22-Sep-20		Time:	10:49 PM		Version no:	0.00		Project name:	55		Sample name:	222		Section name:	section		Position	0.000000	mm	E0	0.000000	keV	E1	1.000000	keV/channel	sample surface	2.000000	cm	Tube anode:	Mo		Tube voltage:	30	kV	Tube current:	30	mA	gain	15		std. database			resultfile	result		matrix element	11		sample thickness	1.000000		air passage	0.560000	cm	comments	not in position		peaking_time	0.300000	m-sec	trigger_threshold	40.000000	V	mca_bin_width	2.000000	no:	number_mca_channels	2048.000000	no:	gap_time	2048.000000	m-sec	trigger_peaking_time	2048.000000	m-sec	GAINDAC	400		HIGHGAIN	400		TAURC	400		RCTAU	400		RCTAUFRAC	400		livetime	12.778311	seconds	runtime	15.000098	seconds	input_count_rate	8453.386602	cps	output_count_rate	7201.286285	cps	triggers	126178	seconds	events_in_run	98622	seconds	channel	content		1.000	0
2.000	0
3.000	0
4.000	0
5.000	0
6.000	0
7.000	0
8.000	0
9.000	0
10.000	0
11.000	0
12.000	0
13.000	0
14.000	0
15.000	0
16.000	0
17.000	0
18.000	0
19.000	0
20.000	0
21.000	0
22.000	0
23.000	0
24.000	0
25.000	0
26.000	0
27.000	0
28.000	0
29.000	0
30.000	0
31.000	1
32.000	0
33.000	0
34.000	1
35.000	0
36.000	0
37.000	0
38.000	0
39.000	0
40.000	0
41.000	0
42.000	0
43.000	1
44.000	0
45.000	0
46.000	0
47.000	0
48.000	1
49.000	1
50.000	1
51.000	1
52.000	2
53.000	3
54.000	4
55.000	5
56.000	6
57.000	8
58.000	12
59.000	18
60.000	21
61.000	25
62.000	25
63.000	31
64.000	25
65.000	28
66.000	25
67.000	23
68.000	24
69.000	24
70.000	24
71.000	22
72.000	22
73.000	22
74.000	22
75.000	21
76.000	25
77.000	20
78.000	22
79.000	23
80.000	23
81.000	24
82.000	21
83.000	21
84.000	24
85.000	23
86.000	22
87.000	24
88.000	22
89.000	22
90.000	21
91.000	20
92.000	20
93.000	22
94.000	19
95.000	22
96.000	20
97.000	21
98.000	19
99.000	17
100.000	17
101.000	19
102.000	19
103.000	17
104.000	20
105.000	17
106.000	18
107.000	17
108.000	18
109.000	18
110.000	15
111.000	20
112.000	16
113.000	17
114.000	17
115.000	16
116.000	16
117.000	17
118.000	16
119.000	17
120.000	17
121.000	16
122.000	16
123.000	16
124.000	16
125.000	14
126.000	15
127.000	14
128.000	15
129.000	13
130.000	14
131.000	15
132.000	14
133.000	14
134.000	13
135.000	15
136.000	14
137.000	12
138.000	14
139.000	15
140.000	16
141.000	18
142.000	21
143.000	22
144.000	25
145.000	22
146.000	25
147.000	24
148.000	21
149.000	19
150.000	19
151.000	19
152.000	17
153.000	18
154.000	17
155.000	16
156.000	16
157.000	15
158.000	15
159.000	12
160.000	12
161.000	11
162.000	14
163.000	15
164.000	22
165.000	27
166.000	36
167.000	44
168.000	50
169.000	58
170.000	63
171.000	67
172.000	62
173.000	59
174.000	51
175.000	39
176.000	34
177.000	30
178.000	26
179.000	22
180.000	23
181.000	29
182.000	33
183.000	46
184.000	52
185.000	67
186.000	94
187.000	116
188.000	136
189.000	160
190.000	177
191.000	185
192.000	184
193.000	161
194.000	136
195.000	109
196.000	82
197.000	63
198.000	44
199.000	33
200.000	22
201.000	18
202.000	15
203.000	14
204.000	16
205.000	13
206.000	13
207.000	12
208.000	13
209.000	15
210.000	14
211.000	14
212.000	12
213.000	15
214.000	15
215.000	15
216.000	19
217.000	22
218.000	24
219.000	29
220.000	31
221.000	36
222.000	34
223.000	38
224.000	35
225.000	36
226.000	29
227.000	27
228.000	24
229.000	19
230.000	19
231.000	17
232.000	13
233.000	15
234.000	14
235.000	12
236.000	10
237.000	11
238.000	11
239.000	10
240.000	11
241.000	12
242.000	12
243.000	11
244.000	12
245.000	13
246.000	16
247.000	20
248.000	24
249.000	30
250.000	41
251.000	56
252.000	72
253.000	87
254.000	105
255.000	117
256.000	132
257.000	139
258.000	127
259.000	124
260.000	104
261.000	91
262.000	73
263.000	56
264.000	44
265.000	34
266.000	25
267.000	19
268.000	20
269.000	21
270.000	19
271.000	20
272.000	23
273.000	23
274.000	23
275.000	26
276.000	30
277.000	28
278.000	27
279.000	24
280.000	24
281.000	27
282.000	24
283.000	28
284.000	35
285.000	35
286.000	42
287.000	45
288.000	51
289.000	56
290.000	56
291.000	57
292.000	50
293.000	48
294.000	39
295.000	34
296.000	28
297.000	22
298.000	23
299.000	21
300.000	19
301.000	17
302.000	16
303.000	17
304.000	16
305.000	19
306.000	18
307.000	24
308.000	21
309.000	23
310.000	27
311.000	26
312.000	29
313.000	38
314.000	44
315.000	53
316.000	65
317.000	82
318.000	109
319.000	136
320.000	170
321.000	209
322.000	241
323.000	261
324.000	277
325.000	276
326.000	269
327.000	242
328.000	196
329.000	177
330.000	141
331.000	111
332.000	77
333.000	64
334.000	50
335.000	35
336.000	29
337.000	28
338.000	26
339.000	31
340.000	36
341.000	42
342.000	49
343.000	62
344.000	80
345.000	107
346.000	154
347.000	238
348.000	353
349.000	555
350.000	857
351.000	1324
352.000	2056
353.000	2964
354.000	4215
355.000	5771
356.000	7510
357.000	9482
358.000	11376
359.000	12946
360.000	14186
361.000	14695
362.000	14648
363.000	13893
364.000	12568
365.000	10804
366.000	8933
367.000	7008
368.000	5249
369.000	3751
370.000	2608
371.000	1701
372.000	1076
373.000	679
374.000	420
375.000	257
376.000	179
377.000	129
378.000	129
379.000	134
380.000	160
381.000	203
382.000	270
383.000	367
384.000	505
385.000	676
386.000	871
387.000	1115
388.000	1354
389.000	1647
390.000	1903
391.000	2040
392.000	2178
393.000	2227
394.000	2131
395.000	1998
396.000	1762
397.000	1524
398.000	1248
399.000	962
400.000	729
401.000	527
402.000	361
403.000	245
404.000	153
405.000	97
406.000	61
407.000	41
408.000	25
409.000	18
410.000	13
411.000	9
412.000	9
413.000	8
414.000	7
415.000	8
416.000	6
417.000	7
418.000	8
419.000	7
420.000	6
421.000	8
422.000	9
423.000	9
424.000	10
425.000	9
426.000	13
427.000	14
428.000	23
429.000	28
430.000	40
431.000	56
432.000	74
433.000	92
434.000	131
435.000	171
436.000	208
437.000	240
438.000	286
439.000	308
440.000	337
441.000	338
442.000	340
443.000	330
444.000	295
445.000	255
446.000	227
447.000	176
448.000	145
449.000	116
450.000	89
451.000	70
452.000	62
453.000	52
454.000	45
455.000	42
456.000	37
457.000	38
458.000	37
459.000	32
460.000	28
461.000	24
462.000	22
463.000	19
464.000	17
465.000	16
466.000	18
467.000	17
468.000	18
469.000	20
470.000	19
471.000	19
472.000	22
473.000	28
474.000	32
475.000	34
476.000	43
477.000	48
478.000	59
479.000	60
480.000	61
481.000	74
482.000	71
483.000	76
484.000	74
485.000	65
486.000	67
487.000	52
488.000	47
489.000	41
490.000	36
491.000	30
492.000	25
493.000	20
494.000	20
495.000	18
496.000	15
497.000	15
498.000	15
499.000	15
500.000	14
501.000	14
502.000	15
503.000	15
504.000	16
505.000	16
506.000	16
507.000	17
508.000	17
509.000	20
510.000	21
511.000	19
512.000	19
513.000	22
514.000	22
515.000	23
516.000	24
517.000	23
518.000	27
519.000	29
520.000	30
521.000	30
522.000	33
523.000	40
524.000	40
525.000	44
526.000	43
527.000	43
528.000	49
529.000	54
530.000	47
531.000	47
532.000	42
533.000	45
534.000	38
535.000	34
536.000	30
537.000	27
538.000	27
539.000	24
540.000	22
541.000	18
542.000	22
543.000	20
544.000	20
545.000	21
546.000	19
547.000	19
548.000	20
549.000	18
550.000	20
551.000	20
552.000	18
553.000	21
554.000	21
555.000	23
556.000	22
557.000	23
558.000	24
559.000	23
560.000	25
561.000	26
562.000	30
563.000	34
564.000	37
565.000	43
566.000	53
567.000	62
568.000	72
569.000	85
570.000	101
571.000	124
572.000	135
573.000	141
574.000	158
575.000	163
576.000	171
577.000	165
578.000	159
579.000	143
580.000	136
581.000	126
582.000	111
583.000	91
584.000	77
585.000	68
586.000	58
587.000	47
588.000	42
589.000	35
590.000	37
591.000	34
592.000	34
593.000	33
594.000	31
595.000	32
596.000	33
597.000	36
598.000	36
599.000	35
600.000	39
601.000	38
602.000	43
603.000	46
604.000	57
605.000	65
606.000	70
607.000	101
608.000	136
609.000	187
610.000	267
611.000	379
612.000	557
613.000	767
614.000	1069
615.000	1440
616.000	1935
617.000	2477
618.000	3117
619.000	3830
620.000	4521
621.000	5208
622.000	5850
623.000	6368
624.000	6732
625.000	6870
626.000	6851
627.000	6591
628.000	6182
629.000	5609
630.000	4953
631.000	4250
632.000	3504
633.000	2833
634.000	2232
635.000	1733
636.000	1273
637.000	926
638.000	685
639.000	482
640.000	331
641.000	239
642.000	175
643.000	125
644.000	100
645.000	81
646.000	72
647.000	64
648.000	58
649.000	59
650.000	56
651.000	54
652.000	53
653.000	56
654.000	52
655.000	52
656.000	54
657.000	54
658.000	54
659.000	52
660.000	57
661.000	58
662.000	58
663.000	56
664.000	63
665.000	64
666.000	69
667.000	69
668.000	73
669.000	76
670.000	82
671.000	90
672.000	100
673.000	114
674.000	137
675.000	157
676.000	192
677.000	229
678.000	287
679.000	344
680.000	429
681.000	521
682.000	606
683.000	704
684.000	823
685.000	912
686.000	990
687.000	1068
688.000	1103
689.000	1148
690.000	1127
691.000	1063
692.000	1031
693.000	943
694.000	835
695.000	747
696.000	626
697.000	522
698.000	417
699.000	344
700.000	271
701.000	213
702.000	171
703.000	134
704.000	110
705.000	84
706.000	75
707.000	64
708.000	58
709.000	57
710.000	52
711.000	52
712.000	53
713.000	52
714.000	58
715.000	52
716.000	62
717.000	62
718.000	60
719.000	63
720.000	65
721.000	67
722.000	70
723.000	77
724.000	72
725.000	82
726.000	81
727.000	83
728.000	81
729.000	80
730.000	85
731.000	82
732.000	79
733.000	78
734.000	78
735.000	74
736.000	73
737.000	70
738.000	67
739.000	67
740.000	61
741.000	61
742.000	61
743.000	60
744.000	63
745.000	61
746.000	54
747.000	60
748.000	60
749.000	54
750.000	59
751.000	61
752.000	58
753.000	60
754.000	62
755.000	61
756.000	59
757.000	60
758.000	59
759.000	60
760.000	63
761.000	65
762.000	62
763.000	56
764.000	59
765.000	64
766.000	63
767.000	61
768.000	61
769.000	65
770.000	66
771.000	71
772.000	70
773.000	72
774.000	71
775.000	74
776.000	81
777.000	85
778.000	86
779.000	93
780.000	92
781.000	93
782.000	102
783.000	99
784.000	103
785.000	111
786.000	111
787.000	115
788.000	119
789.000	115
790.000	122
791.000	117
792.000	114
793.000	120
794.000	122
795.000	122
796.000	123
797.000	126
798.000	120
799.000	126
800.000	122
801.000	116
802.000	122
803.000	135
804.000	126
805.000	133
806.000	137
807.000	140
808.000	137
809.000	153
810.000	159
811.000	176
812.000	183
813.000	190
814.000	204
815.000	220
816.000	232
817.000	233
818.000	242
819.000	237
820.000	245
821.000	234
822.000	225
823.000	222
824.000	211
825.000	194
826.000	188
827.000	178
828.000	163
829.000	145
830.000	136
831.000	131
832.000	127
833.000	115
834.000	116
835.000	114
836.000	112
837.000	111
838.000	106
839.000	115
840.000	116
841.000	113
842.000	109
843.000	117
844.000	112
845.000	113
846.000	109
847.000	120
848.000	114
849.000	110
850.000	104
851.000	112
852.000	107
853.000	105
854.000	105
855.000	107
856.000	100
857.000	103
858.000	99
859.000	101
860.000	94
861.000	97
862.000	101
863.000	99
864.000	104
865.000	100
866.000	98
867.000	104
868.000	105
869.000	100
870.000	99
871.000	96
872.000	105
873.000	106
874.000	104
875.000	104
876.000	102
877.000	101
878.000	101
879.000	105
880.000	109
881.000	100
882.000	100
883.000	105
884.000	103
885.000	103
886.000	107
887.000	106
888.000	105
889.000	104
890.000	107
891.000	105
892.000	110
893.000	107
894.000	118
895.000	110
896.000	110
897.000	120
898.000	121
899.000	118
900.000	124
901.000	127
902.000	127
903.000	124
904.000	131
905.000	131
906.000	135
907.000	132
908.000	133
909.000	132
910.000	142
911.000	147
912.000	141
913.000	151
914.000	145
915.000	146
916.000	150
917.000	149
918.000	143
919.000	152
920.000	153
921.000	153
922.000	154
923.000	156
924.000	164
925.000	155
926.000	163
927.000	165
928.000	158
929.000	169
930.000	174
931.000	174
932.000	172
933.000	180
934.000	182
935.000	188
936.000	194
937.000	205
938.000	214
939.000	218
940.000	211
941.000	215
942.000	232
943.000	226
944.000	236
945.000	229
946.000	230
947.000	220
948.000	216
949.000	214
950.000	202
951.000	193
952.000	191
953.000	182
954.000	175
955.000	172
956.000	161
957.000	162
958.000	164
959.000	159
960.000	155
961.000	154
962.000	158
963.000	154
964.000	154
965.000	162
966.000	154
967.000	163
968.000	160
969.000	164
970.000	165
971.000	165
972.000	170
973.000	160
974.000	163
975.000	162
976.000	163
977.000	161
978.000	150
979.000	147
980.000	147
981.000	145
982.000	137
983.000	142
984.000	136
985.000	134
986.000	136
987.000	126
988.000	127
989.000	131
990.000	122
991.000	124
992.000	126
993.000	125
994.000	125
995.000	125
996.000	125
997.000	127
998.000	120
999.000	121
1000.000	118
1001.000	117
1002.000	123
1003.000	121
1004.000	120
1005.000	123
1006.000	116
1007.000	119
1008.000	121
1009.000	120
1010.000	122
1011.000	121
1012.000	118
1013.000	115
1014.000	117
1015.000	123
1016.000	118
1017.000	120
1018.000	127
1019.000	122
1020.000	122
1021.000	122
1022.000	123
1023.000	121
1024.000	127
1025.000	131
1026.000	124
1027.000	124
1028.000	126
1029.000	126
1030.000	129
1031.000	130
1032.000	129
1033.000	126
1034.000	127
1035.000	126
1036.000	121
1037.000	126
1038.000	132
1039.000	129
1040.000	132
1041.000	132
1042.000	131
1043.000	125
1044.000	130
1045.000	131
1046.000	137
1047.000	135
1048.000	131
1049.000	138
1050.000	143
1051.000	135
1052.000	135
1053.000	143
1054.000	138
1055.000	136
1056.000	148
1057.000	139
1058.000	142
1059.000	129
1060.000	137
1061.000	148
1062.000	141
1063.000	148
1064.000	140
1065.000	141
1066.000	141
1067.000	144
1068.000	142
1069.000	141
1070.000	136
1071.000	136
1072.000	137
1073.000	142
1074.000	140
1075.000	140
1076.000	139
1077.000	142
1078.000	140
1079.000	141
1080.000	142
1081.000	145
1082.000	144
1083.000	135
1084.000	147
1085.000	141
1086.000	144
1087.000	142
1088.000	141
1089.000	143
1090.000	147
1091.000	144
1092.000	150
1093.000	151
1094.000	150
1095.000	154
1096.000	155
1097.000	150
1098.000	147
1099.000	160
1100.000	154
1101.000	151
1102.000	160
1103.000	151
1104.000	145
1105.000	142
1106.000	151
1107.000	149
1108.000	155
1109.000	143
1110.000	150
1111.000	147
1112.000	153
1113.000	139
1114.000	143
1115.000	145
1116.000	144
1117.000	145
1118.000	144
1119.000	136
1120.000	141
1121.000	143
1122.000	147
1123.000	145
1124.000	135
1125.000	138
1126.000	145
1127.000	153
1128.000	143
1129.000	145
1130.000	147
1131.000	148
1132.000	146
1133.000	143
1134.000	143
1135.000	135
1136.000	142
1137.000	149
1138.000	143
1139.000	145
1140.000	147
1141.000	148
1142.000	151
1143.000	148
1144.000	144
1145.000	148
1146.000	149
1147.000	145
1148.000	143
1149.000	152
1150.000	149
1151.000	156
1152.000	152
1153.000	150
1154.000	160
1155.000	155
1156.000	157
1157.000	170
1158.000	162
1159.000	173
1160.000	163
1161.000	167
1162.000	171
1163.000	168
1164.000	166
1165.000	170
1166.000	167
1167.000	158
1168.000	164
1169.000	160
1170.000	158
1171.000	160
1172.000	151
1173.000	155
1174.000	154
1175.000	146
1176.000	142
1177.000	150
1178.000	152
1179.000	147
1180.000	144
1181.000	143
1182.000	145
1183.000	146
1184.000	141
1185.000	146
1186.000	143
1187.000	140
1188.000	145
1189.000	145
1190.000	138
1191.000	139
1192.000	146
1193.000	142
1194.000	139
1195.000	147
1196.000	139
1197.000	153
1198.000	142
1199.000	141
1200.000	139
1201.000	149
1202.000	145
1203.000	147
1204.000	150
1205.000	138
1206.000	145
1207.000	151
1208.000	148
1209.000	148
1210.000	148
1211.000	149
1212.000	143
1213.000	154
1214.000	151
1215.000	155
1216.000	151
1217.000	153
1218.000	146
1219.000	150
1220.000	147
1221.000	152
1222.000	152
1223.000	152
1224.000	148
1225.000	151
1226.000	148
1227.000	150
1228.000	155
1229.000	148
1230.000	148
1231.000	155
1232.000	155
1233.000	157
1234.000	147
1235.000	158
1236.000	151
1237.000	153
1238.000	157
1239.000	158
1240.000	157
1241.000	151
1242.000	150
1243.000	156
1244.000	155
1245.000	157
1246.000	156
1247.000	157
1248.000	156
1249.000	155
1250.000	155
1251.000	157
1252.000	158
1253.000	159
1254.000	158
1255.000	164
1256.000	158
1257.000	151
1258.000	154
1259.000	158
1260.000	153
1261.000	153
1262.000	153
1263.000	150
1264.000	154
1265.000	149
1266.000	156
1267.000	158
1268.000	153
1269.000	150
1270.000	156
1271.000	150
1272.000	149
1273.000	149
1274.000	153
1275.000	153
1276.000	149
1277.000	158
1278.000	153
1279.000	154
1280.000	149
1281.000	155
1282.000	158
1283.000	156
1284.000	156
1285.000	158
1286.000	151
1287.000	152
1288.000	153
1289.000	162
1290.000	156
1291.000	162
1292.000	167
1293.000	162
1294.000	161
1295.000	168
1296.000	162
1297.000	170
1298.000	169
1299.000	169
1300.000	167
1301.000	172
1302.000	174
1303.000	171
1304.000	170
1305.000	170
1306.000	174
1307.000	166
1308.000	171
1309.000	171
1310.000	170
1311.000	170
1312.000	163
1313.000	174
1314.000	166
1315.000	167
1316.000	167
1317.000	162
1318.000	164
1319.000	159
1320.000	162
1321.000	156
1322.000	158
1323.000	161
1324.000	164
1325.000	156
1326.000	163
1327.000	161
1328.000	157
1329.000	155
1330.000	161
1331.000	155
1332.000	156
1333.000	154
1334.000	165
1335.000	158
1336.000	166
1337.000	157
1338.000	152
1339.000	157
1340.000	157
1341.000	166
1342.000	162
1343.000	154
1344.000	163
1345.000	160
1346.000	163
1347.000	163
1348.000	161
1349.000	164
1350.000	162
1351.000	165
1352.000	160
1353.000	162
1354.000	169
1355.000	177
1356.000	180
1357.000	180
1358.000	195
1359.000	203
1360.000	216
1361.000	234
1362.000	247
1363.000	269
1364.000	288
1365.000	332
1366.000	344
1367.000	383
1368.000	433
1369.000	468
1370.000	493
1371.000	548
1372.000	582
1373.000	632
1374.000	649
1375.000	680
1376.000	720
1377.000	733
1378.000	763
1379.000	782
1380.000	790
1381.000	773
1382.000	762
1383.000	722
1384.000	706
1385.000	668
1386.000	624
1387.000	577
1388.000	550
1389.000	504
1390.000	457
1391.000	430
1392.000	392
1393.000	350
1394.000	316
1395.000	291
1396.000	259
1397.000	246
1398.000	219
1399.000	201
1400.000	198
1401.000	192
1402.000	189
1403.000	175
1404.000	164
1405.000	172
1406.000	163
1407.000	162
1408.000	158
1409.000	159
1410.000	152
1411.000	160
1412.000	151
1413.000	158
1414.000	160
1415.000	152
1416.000	159
1417.000	153
1418.000	156
1419.000	159
1420.000	160
1421.000	156
1422.000	163
1423.000	168
1424.000	161
1425.000	161
1426.000	153
1427.000	157
1428.000	155
1429.000	153
1430.000	156
1431.000	155
1432.000	153
1433.000	162
1434.000	157
1435.000	157
1436.000	159
1437.000	158
1438.000	163
1439.000	155
1440.000	163
1441.000	168
1442.000	162
1443.000	159
1444.000	170
1445.000	165
1446.000	166
1447.000	161
1448.000	170
1449.000	169
1450.000	167
1451.000	169
1452.000	172
1453.000	166
1454.000	173
1455.000	170
1456.000	172
1457.000	167
1458.000	169
1459.000	174
1460.000	170
1461.000	169
1462.000	171
1463.000	161
1464.000	173
1465.000	177
1466.000	162
1467.000	165
1468.000	162
1469.000	163
1470.000	162
1471.000	164
1472.000	163
1473.000	163
1474.000	169
1475.000	158
1476.000	159
1477.000	167
1478.000	159
1479.000	161
1480.000	170
1481.000	160
1482.000	153
1483.000	164
1484.000	163
1485.000	160
1486.000	157
1487.000	160
1488.000	165
1489.000	164
1490.000	161
1491.000	167
1492.000	171
1493.000	168
1494.000	165
1495.000	168
1496.000	167
1497.000	167
1498.000	163
1499.000	173
1500.000	163
1501.000	170
1502.000	160
1503.000	170
1504.000	168
1505.000	169
1506.000	172
1507.000	170
1508.000	172
1509.000	167
1510.000	171
1511.000	171
1512.000	174
1513.000	174
1514.000	173
1515.000	178
1516.000	172
1517.000	176
1518.000	185
1519.000	184
1520.000	181
1521.000	184
1522.000	185
1523.000	197
1524.000	197
1525.000	197
1526.000	201
1527.000	203
1528.000	207
1529.000	213
1530.000	218
1531.000	224
1532.000	236
1533.000	243
1534.000	246
1535.000	265
1536.000	276
1537.000	287
1538.000	284
1539.000	297
1540.000	298
1541.000	309
1542.000	306
1543.000	301
1544.000	308
1545.000	312
1546.000	303
1547.000	309
1548.000	294
1549.000	301
1550.000	289
1551.000	279
1552.000	272
1553.000	271
1554.000	271
1555.000	259
1556.000	257
1557.000	255
1558.000	249
1559.000	246
1560.000	244
1561.000	250
1562.000	241
1563.000	251
1564.000	249
1565.000	249
1566.000	262
1567.000	258
1568.000	254
1569.000	262
1570.000	283
1571.000	273
1572.000	296
1573.000	289
1574.000	305
1575.000	296
1576.000	306
1577.000	309
1578.000	329
1579.000	325
1580.000	345
1581.000	348
1582.000	354
1583.000	365
1584.000	376
1585.000	384
1586.000	401
1587.000	410
1588.000	418
1589.000	422
1590.000	449
1591.000	444
1592.000	458
1593.000	475
1594.000	496
1595.000	478
1596.000	490
1597.000	506
1598.000	507
1599.000	531
1600.000	527
1601.000	546
1602.000	538
1603.000	542
1604.000	547
1605.000	562
1606.000	551
1607.000	577
1608.000	569
1609.000	570
1610.000	565
1611.000	559
1612.000	560
1613.000	557
1614.000	544
1615.000	551
1616.000	554
1617.000	542
1618.000	525
1619.000	537
1620.000	525
1621.000	514
1622.000	501
1623.000	491
1624.000	492
1625.000	464
1626.000	453
1627.000	460
1628.000	438
1629.000	420
1630.000	413
1631.000	398
1632.000	388
1633.000	387
1634.000	376
1635.000	368
1636.000	341
1637.000	330
1638.000	322
1639.000	326
1640.000	320
1641.000	307
1642.000	292
1643.000	285
1644.000	269
1645.000	267
1646.000	266
1647.000	259
1648.000	245
1649.000	229
1650.000	232
1651.000	234
1652.000	227
1653.000	217
1654.000	220
1655.000	216
1656.000	201
1657.000	198
1658.000	198
1659.000	189
1660.000	195
1661.000	195
1662.000	183
1663.000	179
1664.000	176
1665.000	185
1666.000	174
1667.000	174
1668.000	177
1669.000	175
1670.000	172
1671.000	161
1672.000	164
1673.000	169
1674.000	174
1675.000	173
1676.000	178
1677.000	189
1678.000	189
1679.000	193
1680.000	203
1681.000	210
1682.000	231
1683.000	240
1684.000	250
1685.000	266
1686.000	274
1687.000	294
1688.000	313
1689.000	338
1690.000	358
1691.000	374
1692.000	403
1693.000	413
1694.000	441
1695.000	462
1696.000	477
1697.000	468
1698.000	504
1699.000	513
1700.000	518
1701.000	515
1702.000	521
1703.000	530
1704.000	511
1705.000	503
1706.000	480
1707.000	473
1708.000	450
1709.000	434
1710.000	415
1711.000	377
1712.000	369
1713.000	339
1714.000	314
1715.000	302
1716.000	275
1717.000	253
1718.000	235
1719.000	219
1720.000	208
1721.000	194
1722.000	177
1723.000	172
1724.000	160
1725.000	157
1726.000	152
1727.000	147
1728.000	145
1729.000	140
1730.000	140
1731.000	134
1732.000	136
1733.000	131
1734.000	135
1735.000	134
1736.000	132
1737.000	131
1738.000	135
1739.000	134
1740.000	133
1741.000	126
1742.000	142
1743.000	137
1744.000	137
1745.000	135
1746.000	132
1747.000	134
1748.000	139
1749.000	141
1750.000	140
1751.000	141
1752.000	140
1753.000	135
1754.000	144
1755.000	135
1756.000	135
1757.000	137
1758.000	145
1759.000	142
1760.000	141
1761.000	141
1762.000	147
1763.000	150
1764.000	146
1765.000	151
1766.000	148
1767.000	158
1768.000	156
1769.000	156
1770.000	155
1771.000	164
1772.000	157
1773.000	160
1774.000	165
1775.000	167
1776.000	163
1777.000	166
1778.000	172
1779.000	169
1780.000	173
1781.000	174
1782.000	178
1783.000	184
1784.000	184
1785.000	179
1786.000	183
1787.000	174
1788.000	182
1789.000	181
1790.000	182
1791.000	183
1792.000	186
1793.000	180
1794.000	175
1795.000	189
1796.000	181
1797.000	183
1798.000	181
1799.000	182
1800.000	180
1801.000	173
1802.000	169
1803.000	178
1804.000	169
1805.000	176
1806.000	175
1807.000	175
1808.000	172
1809.000	175
1810.000	165
1811.000	166
1812.000	167
1813.000	164
1814.000	156
1815.000	156
1816.000	160
1817.000	149
1818.000	145
1819.000	150
1820.000	149
1821.000	142
1822.000	149
1823.000	137
1824.000	139
1825.000	135
1826.000	130
1827.000	130
1828.000	132
1829.000	124
1830.000	119
1831.000	124
1832.000	122
1833.000	118
1834.000	120
1835.000	114
1836.000	117
1837.000	115
1838.000	115
1839.000	109
1840.000	107
1841.000	110
1842.000	100
1843.000	108
1844.000	99
1845.000	103
1846.000	98
1847.000	101
1848.000	100
1849.000	94
1850.000	96
1851.000	91
1852.000	91
1853.000	90
1854.000	87
1855.000	91
1856.000	88
1857.000	84
1858.000	87
1859.000	89
1860.000	84
1861.000	83
1862.000	81
1863.000	79
1864.000	85
1865.000	75
1866.000	77
1867.000	82
1868.000	78
1869.000	75
1870.000	79
1871.000	76
1872.000	73
1873.000	75
1874.000	79
1875.000	75
1876.000	75
1877.000	75
1878.000	75
1879.000	67
1880.000	76
1881.000	70
1882.000	73
1883.000	70
1884.000	76
1885.000	70
1886.000	72
1887.000	68
1888.000	69
1889.000	70
1890.000	72
1891.000	68
1892.000	72
1893.000	74
1894.000	76
1895.000	74
1896.000	82
1897.000	85
1898.000	86
1899.000	88
1900.000	95
1901.000	96
1902.000	98
1903.000	104
1904.000	100
1905.000	104
1906.000	111
1907.000	112
1908.000	111
1909.000	118
1910.000	117
1911.000	120
1912.000	114
1913.000	109
1914.000	116
1915.000	113
1916.000	110
1917.000	110
1918.000	102
1919.000	98
1920.000	98
1921.000	97
1922.000	86
1923.000	89
1924.000	83
1925.000	83
1926.000	76
1927.000	73
1928.000	71
1929.000	68
1930.000	73
1931.000	71
1932.000	65
1933.000	65
1934.000	65
1935.000	66
1936.000	62
1937.000	70
1938.000	64
1939.000	66
1940.000	60
1941.000	65
1942.000	65
1943.000	65
1944.000	62
1945.000	68
1946.000	62
1947.000	62
1948.000	63
1949.000	62
1950.000	57
1951.000	62
1952.000	59
1953.000	57
1954.000	57
1955.000	56
1956.000	61
1957.000	53
1958.000	55
1959.000	52
1960.000	51
1961.000	52
1962.000	51
1963.000	52
1964.000	53
1965.000	51
1966.000	53
1967.000	47
1968.000	52
1969.000	50
1970.000	52
1971.000	48
1972.000	44
1973.000	48
1974.000	48
1975.000	51
1976.000	50
1977.000	48
1978.000	48
1979.000	48
1980.000	43
1981.000	50
1982.000	49
1983.000	47
1984.000	48
1985.000	46
1986.000	46
1987.000	48
1988.000	47
1989.000	50
1990.000	46
1991.000	48
1992.000	52
1993.000	48
1994.000	45
1995.000	44
1996.000	47
1997.000	49
1998.000	46
1999.000	51
2000.000	47
2001.000	44
2002.000	46
2003.000	48
2004.000	45
2005.000	48
2006.000	46
2007.000	46
2008.000	45
2009.000	47
2010.000	46
2011.000	46
2012.000	46
2013.000	48
2014.000	47
2015.000	46
2016.000	45
2017.000	50
2018.000	45
2019.000	46
2020.000	51
2021.000	47
2022.000	49
2023.000	46
2024.000	42
2025.000	42
2026.000	45
2027.000	41
2028.000	50
2029.000	44
2030.000	45
2031.000	44
2032.000	46
2033.000	43
2034.000	40
2035.000	46
2036.000	41
2037.000	43
2038.000	46
2039.000	41
2040.000	45
2041.000	46
2042.000	43
2043.000	47
2044.000	45
2045.000	42
2046.000	41
2047.000	43
2048.000	0
