Date:	17-Sep-20		Time:	11:47 PM		Version no:	0.00		Project name:	55		Sample name:	222		Section name:	section		Position	0.000000	mm	E0	0.000000	keV	E1	1.000000	keV/channel	sample surface	2.000000	cm	Tube anode:	Mo		Tube voltage:	30	kV	Tube current:	30	mA	gain	15		std. database			resultfile	result		matrix element	11		sample thickness	1.000000		air passage	0.560000	cm	comments	not in position		peaking_time	0.300000	m-sec	trigger_threshold	40.000000	V	mca_bin_width	2.000000	no:	number_mca_channels	2048.000000	no:	gap_time	2048.000000	m-sec	trigger_peaking_time	2048.000000	m-sec	GAINDAC	400		HIGHGAIN	400		TAURC	400		RCTAU	400		RCTAUFRAC	400		livetime	13.014294	seconds	runtime	15.000232	seconds	input_count_rate	80431.410221	cps	output_count_rate	69782.785033	cps	triggers	1173264	seconds	events_in_run	1020480	seconds	channel	content		1.000	0
2.000	0
3.000	0
4.000	0
5.000	0
6.000	0
7.000	0
8.000	0
9.000	0
10.000	0
11.000	0
12.000	0
13.000	0
14.000	0
15.000	0
16.000	0
17.000	0
18.000	0
19.000	0
20.000	0
21.000	0
22.000	0
23.000	0
24.000	0
25.000	0
26.000	0
27.000	0
28.000	0
29.000	0
30.000	0
31.000	0
32.000	0
33.000	0
34.000	0
35.000	1
36.000	0
37.000	0
38.000	0
39.000	0
40.000	0
41.000	1
42.000	0
43.000	0
44.000	0
45.000	0
46.000	1
47.000	0
48.000	1
49.000	1
50.000	1
51.000	2
52.000	3
53.000	3
54.000	4
55.000	5
56.000	6
57.000	9
58.000	14
59.000	19
60.000	22
61.000	27
62.000	27
63.000	32
64.000	30
65.000	30
66.000	26
67.000	24
68.000	27
69.000	27
70.000	25
71.000	29
72.000	27
73.000	26
74.000	24
75.000	24
76.000	23
77.000	22
78.000	27
79.000	24
80.000	26
81.000	26
82.000	25
83.000	26
84.000	26
85.000	30
86.000	26
87.000	26
88.000	28
89.000	24
90.000	24
91.000	22
92.000	23
93.000	22
94.000	22
95.000	24
96.000	21
97.000	20
98.000	20
99.000	20
100.000	20
101.000	20
102.000	20
103.000	23
104.000	22
105.000	20
106.000	16
107.000	21
108.000	20
109.000	18
110.000	19
111.000	19
112.000	18
113.000	16
114.000	19
115.000	19
116.000	18
117.000	18
118.000	18
119.000	18
120.000	18
121.000	16
122.000	16
123.000	17
124.000	17
125.000	17
126.000	16
127.000	17
128.000	16
129.000	16
130.000	16
131.000	16
132.000	15
133.000	17
134.000	14
135.000	16
136.000	14
137.000	14
138.000	14
139.000	16
140.000	18
141.000	18
142.000	22
143.000	25
144.000	27
145.000	26
146.000	26
147.000	28
148.000	25
149.000	24
150.000	25
151.000	20
152.000	21
153.000	20
154.000	20
155.000	20
156.000	16
157.000	16
158.000	15
159.000	17
160.000	14
161.000	14
162.000	17
163.000	21
164.000	25
165.000	30
166.000	41
167.000	52
168.000	61
169.000	70
170.000	74
171.000	76
172.000	73
173.000	63
174.000	55
175.000	52
176.000	37
177.000	34
178.000	28
179.000	28
180.000	29
181.000	34
182.000	36
183.000	39
184.000	51
185.000	67
186.000	88
187.000	111
188.000	137
189.000	158
190.000	166
191.000	170
192.000	176
193.000	152
194.000	128
195.000	108
196.000	82
197.000	59
198.000	45
199.000	31
200.000	24
201.000	21
202.000	16
203.000	17
204.000	14
205.000	14
206.000	14
207.000	13
208.000	14
209.000	15
210.000	13
211.000	14
212.000	15
213.000	16
214.000	18
215.000	21
216.000	18
217.000	21
218.000	25
219.000	27
220.000	28
221.000	33
222.000	40
223.000	35
224.000	40
225.000	37
226.000	28
227.000	27
228.000	27
229.000	21
230.000	20
231.000	15
232.000	15
233.000	15
234.000	13
235.000	11
236.000	12
237.000	12
238.000	10
239.000	11
240.000	12
241.000	10
242.000	12
243.000	11
244.000	14
245.000	15
246.000	18
247.000	21
248.000	23
249.000	35
250.000	44
251.000	62
252.000	80
253.000	100
254.000	126
255.000	141
256.000	148
257.000	152
258.000	153
259.000	140
260.000	119
261.000	108
262.000	78
263.000	66
264.000	51
265.000	32
266.000	27
267.000	22
268.000	22
269.000	22
270.000	25
271.000	23
272.000	25
273.000	30
274.000	29
275.000	27
276.000	30
277.000	26
278.000	29
279.000	30
280.000	28
281.000	31
282.000	33
283.000	33
284.000	40
285.000	44
286.000	60
287.000	68
288.000	75
289.000	71
290.000	77
291.000	72
292.000	68
293.000	66
294.000	53
295.000	45
296.000	36
297.000	29
298.000	23
299.000	20
300.000	18
301.000	18
302.000	18
303.000	19
304.000	17
305.000	20
306.000	20
307.000	21
308.000	22
309.000	25
310.000	27
311.000	32
312.000	38
313.000	47
314.000	57
315.000	71
316.000	94
317.000	126
318.000	171
319.000	227
320.000	277
321.000	345
322.000	397
323.000	427
324.000	458
325.000	446
326.000	437
327.000	392
328.000	343
329.000	281
330.000	220
331.000	177
332.000	126
333.000	87
334.000	65
335.000	44
336.000	36
337.000	32
338.000	32
339.000	32
340.000	38
341.000	45
342.000	55
343.000	63
344.000	82
345.000	113
346.000	160
347.000	232
348.000	350
349.000	549
350.000	852
351.000	1296
352.000	1954
353.000	2832
354.000	4012
355.000	5514
356.000	7183
357.000	8922
358.000	10742
359.000	12273
360.000	13415
361.000	13965
362.000	13819
363.000	13068
364.000	11852
365.000	10256
366.000	8399
367.000	6623
368.000	4962
369.000	3563
370.000	2477
371.000	1627
372.000	1033
373.000	630
374.000	393
375.000	244
376.000	169
377.000	132
378.000	121
379.000	125
380.000	153
381.000	203
382.000	263
383.000	347
384.000	474
385.000	637
386.000	843
387.000	1082
388.000	1330
389.000	1573
390.000	1784
391.000	1963
392.000	2095
393.000	2141
394.000	2071
395.000	1922
396.000	1693
397.000	1447
398.000	1181
399.000	946
400.000	700
401.000	509
402.000	351
403.000	235
404.000	153
405.000	100
406.000	60
407.000	40
408.000	22
409.000	18
410.000	13
411.000	10
412.000	9
413.000	9
414.000	10
415.000	9
416.000	8
417.000	8
418.000	8
419.000	9
420.000	8
421.000	10
422.000	9
423.000	9
424.000	9
425.000	13
426.000	14
427.000	15
428.000	24
429.000	32
430.000	41
431.000	59
432.000	75
433.000	103
434.000	138
435.000	170
436.000	209
437.000	244
438.000	281
439.000	311
440.000	333
441.000	334
442.000	320
443.000	316
444.000	282
445.000	253
446.000	224
447.000	174
448.000	145
449.000	114
450.000	88
451.000	81
452.000	64
453.000	55
454.000	52
455.000	52
456.000	46
457.000	39
458.000	37
459.000	32
460.000	33
461.000	31
462.000	25
463.000	24
464.000	20
465.000	19
466.000	22
467.000	21
468.000	21
469.000	26
470.000	26
471.000	32
472.000	32
473.000	37
474.000	44
475.000	43
476.000	48
477.000	52
478.000	58
479.000	69
480.000	68
481.000	73
482.000	71
483.000	77
484.000	70
485.000	72
486.000	62
487.000	60
488.000	54
489.000	46
490.000	35
491.000	33
492.000	28
493.000	27
494.000	24
495.000	21
496.000	19
497.000	20
498.000	20
499.000	16
500.000	19
501.000	20
502.000	19
503.000	20
504.000	22
505.000	22
506.000	23
507.000	22
508.000	22
509.000	23
510.000	27
511.000	26
512.000	27
513.000	26
514.000	27
515.000	30
516.000	31
517.000	31
518.000	31
519.000	35
520.000	34
521.000	36
522.000	41
523.000	43
524.000	43
525.000	49
526.000	50
527.000	51
528.000	51
529.000	52
530.000	54
531.000	50
532.000	50
533.000	45
534.000	42
535.000	43
536.000	36
537.000	33
538.000	32
539.000	30
540.000	30
541.000	28
542.000	24
543.000	26
544.000	25
545.000	24
546.000	25
547.000	26
548.000	26
549.000	27
550.000	26
551.000	25
552.000	27
553.000	26
554.000	27
555.000	29
556.000	26
557.000	32
558.000	31
559.000	35
560.000	33
561.000	39
562.000	41
563.000	42
564.000	47
565.000	53
566.000	62
567.000	71
568.000	87
569.000	101
570.000	118
571.000	137
572.000	144
573.000	158
574.000	172
575.000	177
576.000	183
577.000	177
578.000	173
579.000	164
580.000	151
581.000	135
582.000	117
583.000	103
584.000	88
585.000	78
586.000	65
587.000	56
588.000	48
589.000	44
590.000	43
591.000	39
592.000	33
593.000	39
594.000	36
595.000	35
596.000	37
597.000	38
598.000	43
599.000	42
600.000	44
601.000	49
602.000	52
603.000	56
604.000	62
605.000	73
606.000	91
607.000	118
608.000	155
609.000	215
610.000	295
611.000	435
612.000	587
613.000	836
614.000	1174
615.000	1575
616.000	2095
617.000	2678
618.000	3384
619.000	4115
620.000	4890
621.000	5649
622.000	6339
623.000	6883
624.000	7238
625.000	7455
626.000	7438
627.000	7171
628.000	6669
629.000	6122
630.000	5385
631.000	4590
632.000	3815
633.000	3095
634.000	2431
635.000	1856
636.000	1368
637.000	1017
638.000	741
639.000	522
640.000	367
641.000	247
642.000	183
643.000	136
644.000	103
645.000	86
646.000	76
647.000	74
648.000	64
649.000	61
650.000	60
651.000	63
652.000	63
653.000	64
654.000	66
655.000	60
656.000	62
657.000	63
658.000	67
659.000	67
660.000	69
661.000	71
662.000	70
663.000	68
664.000	71
665.000	78
666.000	77
667.000	84
668.000	82
669.000	91
670.000	97
671.000	110
672.000	123
673.000	125
674.000	151
675.000	188
676.000	216
677.000	268
678.000	323
679.000	384
680.000	474
681.000	562
682.000	666
683.000	772
684.000	877
685.000	983
686.000	1086
687.000	1177
688.000	1197
689.000	1216
690.000	1212
691.000	1169
692.000	1117
693.000	1019
694.000	909
695.000	803
696.000	686
697.000	569
698.000	464
699.000	384
700.000	302
701.000	242
702.000	183
703.000	147
704.000	121
705.000	97
706.000	83
707.000	73
708.000	69
709.000	65
710.000	64
711.000	63
712.000	64
713.000	69
714.000	60
715.000	73
716.000	66
717.000	70
718.000	70
719.000	77
720.000	81
721.000	82
722.000	86
723.000	84
724.000	91
725.000	91
726.000	91
727.000	93
728.000	91
729.000	96
730.000	96
731.000	96
732.000	92
733.000	89
734.000	91
735.000	81
736.000	87
737.000	79
738.000	81
739.000	81
740.000	75
741.000	77
742.000	72
743.000	73
744.000	73
745.000	71
746.000	70
747.000	67
748.000	69
749.000	70
750.000	66
751.000	72
752.000	66
753.000	74
754.000	68
755.000	70
756.000	73
757.000	70
758.000	71
759.000	73
760.000	75
761.000	74
762.000	79
763.000	75
764.000	73
765.000	77
766.000	82
767.000	84
768.000	80
769.000	80
770.000	84
771.000	84
772.000	88
773.000	93
774.000	92
775.000	96
776.000	99
777.000	103
778.000	108
779.000	111
780.000	112
781.000	117
782.000	128
783.000	132
784.000	138
785.000	139
786.000	137
787.000	147
788.000	153
789.000	147
790.000	146
791.000	153
792.000	150
793.000	155
794.000	154
795.000	144
796.000	155
797.000	159
798.000	156
799.000	152
800.000	152
801.000	157
802.000	154
803.000	157
804.000	156
805.000	152
806.000	168
807.000	173
808.000	179
809.000	197
810.000	198
811.000	214
812.000	230
813.000	250
814.000	259
815.000	287
816.000	292
817.000	280
818.000	294
819.000	297
820.000	295
821.000	296
822.000	297
823.000	276
824.000	268
825.000	248
826.000	230
827.000	216
828.000	192
829.000	190
830.000	167
831.000	158
832.000	150
833.000	146
834.000	141
835.000	138
836.000	136
837.000	136
838.000	140
839.000	138
840.000	139
841.000	138
842.000	141
843.000	135
844.000	132
845.000	138
846.000	141
847.000	135
848.000	139
849.000	130
850.000	126
851.000	131
852.000	132
853.000	125
854.000	122
855.000	120
856.000	123
857.000	115
858.000	121
859.000	116
860.000	117
861.000	123
862.000	120
863.000	125
864.000	121
865.000	123
866.000	119
867.000	121
868.000	115
869.000	117
870.000	123
871.000	122
872.000	121
873.000	117
874.000	129
875.000	123
876.000	127
877.000	121
878.000	123
879.000	123
880.000	124
881.000	119
882.000	120
883.000	124
884.000	118
885.000	123
886.000	130
887.000	126
888.000	120
889.000	131
890.000	133
891.000	131
892.000	133
893.000	136
894.000	130
895.000	139
896.000	134
897.000	139
898.000	147
899.000	151
900.000	151
901.000	147
902.000	160
903.000	163
904.000	163
905.000	160
906.000	167
907.000	165
908.000	170
909.000	166
910.000	173
911.000	176
912.000	174
913.000	174
914.000	172
915.000	180
916.000	176
917.000	176
918.000	178
919.000	179
920.000	190
921.000	182
922.000	186
923.000	183
924.000	194
925.000	190
926.000	184
927.000	200
928.000	202
929.000	200
930.000	211
931.000	214
932.000	211
933.000	223
934.000	225
935.000	234
936.000	241
937.000	247
938.000	251
939.000	257
940.000	262
941.000	260
942.000	267
943.000	263
944.000	267
945.000	265
946.000	261
947.000	263
948.000	245
949.000	242
950.000	239
951.000	233
952.000	210
953.000	218
954.000	199
955.000	201
956.000	189
957.000	188
958.000	187
959.000	187
960.000	180
961.000	182
962.000	184
963.000	173
964.000	179
965.000	185
966.000	182
967.000	198
968.000	181
969.000	193
970.000	189
971.000	197
972.000	186
973.000	195
974.000	190
975.000	190
976.000	180
977.000	181
978.000	178
979.000	167
980.000	177
981.000	165
982.000	161
983.000	167
984.000	165
985.000	159
986.000	158
987.000	154
988.000	157
989.000	159
990.000	147
991.000	148
992.000	150
993.000	149
994.000	143
995.000	142
996.000	143
997.000	139
998.000	146
999.000	145
1000.000	142
1001.000	134
1002.000	139
1003.000	142
1004.000	141
1005.000	140
1006.000	141
1007.000	141
1008.000	136
1009.000	137
1010.000	143
1011.000	144
1012.000	139
1013.000	140
1014.000	140
1015.000	143
1016.000	141
1017.000	147
1018.000	144
1019.000	143
1020.000	143
1021.000	143
1022.000	146
1023.000	144
1024.000	149
1025.000	146
1026.000	151
1027.000	149
1028.000	142
1029.000	152
1030.000	143
1031.000	150
1032.000	152
1033.000	155
1034.000	157
1035.000	157
1036.000	151
1037.000	151
1038.000	148
1039.000	154
1040.000	151
1041.000	159
1042.000	154
1043.000	150
1044.000	149
1045.000	155
1046.000	153
1047.000	162
1048.000	154
1049.000	165
1050.000	163
1051.000	160
1052.000	166
1053.000	160
1054.000	167
1055.000	166
1056.000	166
1057.000	166
1058.000	166
1059.000	164
1060.000	168
1061.000	163
1062.000	173
1063.000	167
1064.000	160
1065.000	168
1066.000	167
1067.000	174
1068.000	164
1069.000	170
1070.000	162
1071.000	165
1072.000	168
1073.000	161
1074.000	166
1075.000	171
1076.000	169
1077.000	173
1078.000	169
1079.000	164
1080.000	169
1081.000	161
1082.000	159
1083.000	168
1084.000	161
1085.000	167
1086.000	170
1087.000	164
1088.000	157
1089.000	165
1090.000	175
1091.000	177
1092.000	170
1093.000	175
1094.000	171
1095.000	174
1096.000	177
1097.000	176
1098.000	187
1099.000	179
1100.000	175
1101.000	189
1102.000	182
1103.000	179
1104.000	178
1105.000	174
1106.000	176
1107.000	185
1108.000	174
1109.000	175
1110.000	176
1111.000	173
1112.000	171
1113.000	166
1114.000	172
1115.000	174
1116.000	165
1117.000	179
1118.000	173
1119.000	169
1120.000	159
1121.000	166
1122.000	167
1123.000	169
1124.000	164
1125.000	169
1126.000	166
1127.000	160
1128.000	166
1129.000	172
1130.000	176
1131.000	170
1132.000	166
1133.000	170
1134.000	169
1135.000	164
1136.000	171
1137.000	167
1138.000	169
1139.000	175
1140.000	173
1141.000	172
1142.000	169
1143.000	168
1144.000	171
1145.000	184
1146.000	167
1147.000	177
1148.000	173
1149.000	178
1150.000	180
1151.000	171
1152.000	175
1153.000	187
1154.000	185
1155.000	192
1156.000	183
1157.000	191
1158.000	194
1159.000	191
1160.000	199
1161.000	190
1162.000	194
1163.000	190
1164.000	192
1165.000	198
1166.000	196
1167.000	186
1168.000	189
1169.000	187
1170.000	185
1171.000	181
1172.000	184
1173.000	180
1174.000	183
1175.000	170
1176.000	174
1177.000	168
1178.000	168
1179.000	177
1180.000	168
1181.000	170
1182.000	160
1183.000	168
1184.000	169
1185.000	169
1186.000	172
1187.000	170
1188.000	158
1189.000	167
1190.000	166
1191.000	166
1192.000	164
1193.000	164
1194.000	171
1195.000	168
1196.000	161
1197.000	166
1198.000	172
1199.000	174
1200.000	169
1201.000	167
1202.000	173
1203.000	167
1204.000	164
1205.000	173
1206.000	170
1207.000	166
1208.000	167
1209.000	165
1210.000	175
1211.000	178
1212.000	167
1213.000	166
1214.000	173
1215.000	178
1216.000	175
1217.000	173
1218.000	177
1219.000	184
1220.000	175
1221.000	170
1222.000	178
1223.000	177
1224.000	171
1225.000	170
1226.000	176
1227.000	168
1228.000	179
1229.000	184
1230.000	178
1231.000	173
1232.000	192
1233.000	175
1234.000	182
1235.000	176
1236.000	179
1237.000	170
1238.000	181
1239.000	177
1240.000	177
1241.000	174
1242.000	181
1243.000	173
1244.000	186
1245.000	173
1246.000	177
1247.000	182
1248.000	174
1249.000	177
1250.000	180
1251.000	177
1252.000	185
1253.000	176
1254.000	182
1255.000	172
1256.000	177
1257.000	178
1258.000	178
1259.000	178
1260.000	182
1261.000	181
1262.000	182
1263.000	173
1264.000	174
1265.000	175
1266.000	174
1267.000	179
1268.000	179
1269.000	181
1270.000	178
1271.000	177
1272.000	172
1273.000	175
1274.000	173
1275.000	165
1276.000	175
1277.000	173
1278.000	181
1279.000	177
1280.000	174
1281.000	173
1282.000	181
1283.000	183
1284.000	176
1285.000	176
1286.000	183
1287.000	179
1288.000	184
1289.000	177
1290.000	189
1291.000	190
1292.000	190
1293.000	189
1294.000	197
1295.000	199
1296.000	198
1297.000	199
1298.000	201
1299.000	200
1300.000	208
1301.000	205
1302.000	212
1303.000	213
1304.000	210
1305.000	211
1306.000	199
1307.000	207
1308.000	205
1309.000	203
1310.000	203
1311.000	197
1312.000	199
1313.000	194
1314.000	200
1315.000	193
1316.000	189
1317.000	194
1318.000	192
1319.000	193
1320.000	182
1321.000	186
1322.000	182
1323.000	191
1324.000	187
1325.000	191
1326.000	183
1327.000	180
1328.000	180
1329.000	184
1330.000	180
1331.000	182
1332.000	185
1333.000	181
1334.000	181
1335.000	175
1336.000	183
1337.000	184
1338.000	185
1339.000	192
1340.000	184
1341.000	187
1342.000	183
1343.000	179
1344.000	181
1345.000	191
1346.000	182
1347.000	184
1348.000	180
1349.000	176
1350.000	187
1351.000	197
1352.000	197
1353.000	192
1354.000	192
1355.000	198
1356.000	209
1357.000	210
1358.000	220
1359.000	224
1360.000	241
1361.000	249
1362.000	279
1363.000	299
1364.000	319
1365.000	349
1366.000	386
1367.000	411
1368.000	445
1369.000	491
1370.000	536
1371.000	585
1372.000	633
1373.000	663
1374.000	694
1375.000	743
1376.000	760
1377.000	796
1378.000	813
1379.000	827
1380.000	813
1381.000	827
1382.000	823
1383.000	784
1384.000	745
1385.000	707
1386.000	671
1387.000	646
1388.000	599
1389.000	543
1390.000	510
1391.000	452
1392.000	423
1393.000	369
1394.000	346
1395.000	317
1396.000	288
1397.000	268
1398.000	254
1399.000	244
1400.000	229
1401.000	215
1402.000	204
1403.000	193
1404.000	182
1405.000	180
1406.000	186
1407.000	182
1408.000	188
1409.000	184
1410.000	184
1411.000	183
1412.000	176
1413.000	175
1414.000	178
1415.000	186
1416.000	179
1417.000	186
1418.000	180
1419.000	184
1420.000	175
1421.000	190
1422.000	179
1423.000	184
1424.000	186
1425.000	179
1426.000	176
1427.000	182
1428.000	186
1429.000	178
1430.000	178
1431.000	185
1432.000	185
1433.000	181
1434.000	186
1435.000	189
1436.000	186
1437.000	192
1438.000	190
1439.000	173
1440.000	184
1441.000	185
1442.000	184
1443.000	183
1444.000	187
1445.000	190
1446.000	190
1447.000	192
1448.000	193
1449.000	189
1450.000	189
1451.000	190
1452.000	195
1453.000	195
1454.000	194
1455.000	197
1456.000	197
1457.000	197
1458.000	199
1459.000	202
1460.000	200
1461.000	200
1462.000	201
1463.000	193
1464.000	198
1465.000	199
1466.000	191
1467.000	197
1468.000	192
1469.000	195
1470.000	190
1471.000	179
1472.000	193
1473.000	188
1474.000	190
1475.000	187
1476.000	192
1477.000	183
1478.000	187
1479.000	178
1480.000	187
1481.000	192
1482.000	188
1483.000	182
1484.000	191
1485.000	185
1486.000	190
1487.000	187
1488.000	195
1489.000	187
1490.000	188
1491.000	193
1492.000	186
1493.000	180
1494.000	184
1495.000	187
1496.000	184
1497.000	187
1498.000	192
1499.000	188
1500.000	185
1501.000	188
1502.000	186
1503.000	195
1504.000	185
1505.000	190
1506.000	190
1507.000	197
1508.000	185
1509.000	197
1510.000	191
1511.000	198
1512.000	194
1513.000	197
1514.000	200
1515.000	196
1516.000	198
1517.000	208
1518.000	207
1519.000	211
1520.000	203
1521.000	214
1522.000	211
1523.000	217
1524.000	218
1525.000	226
1526.000	231
1527.000	240
1528.000	247
1529.000	247
1530.000	256
1531.000	257
1532.000	266
1533.000	277
1534.000	283
1535.000	294
1536.000	307
1537.000	309
1538.000	324
1539.000	329
1540.000	332
1541.000	336
1542.000	341
1543.000	330
1544.000	345
1545.000	338
1546.000	347
1547.000	338
1548.000	340
1549.000	334
1550.000	320
1551.000	325
1552.000	314
1553.000	307
1554.000	304
1555.000	293
1556.000	291
1557.000	292
1558.000	286
1559.000	286
1560.000	279
1561.000	283
1562.000	284
1563.000	272
1564.000	295
1565.000	286
1566.000	290
1567.000	306
1568.000	309
1569.000	311
1570.000	312
1571.000	321
1572.000	329
1573.000	334
1574.000	351
1575.000	343
1576.000	358
1577.000	367
1578.000	384
1579.000	393
1580.000	396
1581.000	410
1582.000	422
1583.000	434
1584.000	432
1585.000	457
1586.000	465
1587.000	471
1588.000	502
1589.000	506
1590.000	516
1591.000	541
1592.000	544
1593.000	561
1594.000	569
1595.000	574
1596.000	602
1597.000	614
1598.000	594
1599.000	613
1600.000	632
1601.000	635
1602.000	639
1603.000	631
1604.000	647
1605.000	654
1606.000	638
1607.000	658
1608.000	664
1609.000	652
1610.000	651
1611.000	667
1612.000	654
1613.000	646
1614.000	638
1615.000	637
1616.000	615
1617.000	621
1618.000	612
1619.000	580
1620.000	587
1621.000	581
1622.000	561
1623.000	546
1624.000	556
1625.000	527
1626.000	527
1627.000	510
1628.000	497
1629.000	485
1630.000	467
1631.000	463
1632.000	440
1633.000	433
1634.000	409
1635.000	401
1636.000	392
1637.000	375
1638.000	366
1639.000	368
1640.000	351
1641.000	334
1642.000	332
1643.000	316
1644.000	306
1645.000	305
1646.000	294
1647.000	287
1648.000	285
1649.000	274
1650.000	264
1651.000	261
1652.000	246
1653.000	249
1654.000	240
1655.000	242
1656.000	231
1657.000	230
1658.000	218
1659.000	222
1660.000	216
1661.000	209
1662.000	204
1663.000	200
1664.000	203
1665.000	202
1666.000	197
1667.000	196
1668.000	197
1669.000	195
1670.000	200
1671.000	190
1672.000	190
1673.000	197
1674.000	203
1675.000	197
1676.000	195
1677.000	212
1678.000	209
1679.000	224
1680.000	234
1681.000	237
1682.000	253
1683.000	265
1684.000	280
1685.000	286
1686.000	310
1687.000	326
1688.000	351
1689.000	361
1690.000	372
1691.000	403
1692.000	433
1693.000	459
1694.000	470
1695.000	494
1696.000	526
1697.000	531
1698.000	536
1699.000	545
1700.000	549
1701.000	565
1702.000	553
1703.000	550
1704.000	533
1705.000	541
1706.000	516
1707.000	507
1708.000	485
1709.000	473
1710.000	449
1711.000	430
1712.000	395
1713.000	377
1714.000	343
1715.000	328
1716.000	300
1717.000	285
1718.000	262
1719.000	244
1720.000	223
1721.000	216
1722.000	204
1723.000	193
1724.000	184
1725.000	180
1726.000	172
1727.000	169
1728.000	162
1729.000	156
1730.000	160
1731.000	157
1732.000	150
1733.000	154
1734.000	153
1735.000	155
1736.000	148
1737.000	149
1738.000	154
1739.000	154
1740.000	152
1741.000	158
1742.000	150
1743.000	148
1744.000	150
1745.000	152
1746.000	155
1747.000	152
1748.000	151
1749.000	152
1750.000	152
1751.000	155
1752.000	159
1753.000	158
1754.000	157
1755.000	152
1756.000	160
1757.000	162
1758.000	163
1759.000	161
1760.000	166
1761.000	164
1762.000	164
1763.000	168
1764.000	164
1765.000	173
1766.000	169
1767.000	173
1768.000	172
1769.000	177
1770.000	180
1771.000	183
1772.000	184
1773.000	184
1774.000	184
1775.000	193
1776.000	193
1777.000	192
1778.000	199
1779.000	194
1780.000	199
1781.000	197
1782.000	197
1783.000	205
1784.000	201
1785.000	197
1786.000	204
1787.000	203
1788.000	208
1789.000	207
1790.000	209
1791.000	211
1792.000	202
1793.000	209
1794.000	215
1795.000	207
1796.000	204
1797.000	204
1798.000	215
1799.000	206
1800.000	195
1801.000	200
1802.000	204
1803.000	199
1804.000	201
1805.000	205
1806.000	199
1807.000	202
1808.000	194
1809.000	191
1810.000	188
1811.000	188
1812.000	185
1813.000	186
1814.000	179
1815.000	172
1816.000	173
1817.000	171
1818.000	167
1819.000	166
1820.000	169
1821.000	165
1822.000	157
1823.000	150
1824.000	156
1825.000	146
1826.000	150
1827.000	144
1828.000	139
1829.000	144
1830.000	137
1831.000	138
1832.000	140
1833.000	124
1834.000	131
1835.000	132
1836.000	116
1837.000	119
1838.000	122
1839.000	125
1840.000	119
1841.000	118
1842.000	116
1843.000	113
1844.000	113
1845.000	111
1846.000	109
1847.000	112
1848.000	112
1849.000	101
1850.000	108
1851.000	107
1852.000	105
1853.000	105
1854.000	95
1855.000	100
1856.000	97
1857.000	96
1858.000	93
1859.000	96
1860.000	93
1861.000	90
1862.000	99
1863.000	92
1864.000	91
1865.000	84
1866.000	89
1867.000	92
1868.000	86
1869.000	84
1870.000	88
1871.000	81
1872.000	83
1873.000	82
1874.000	87
1875.000	84
1876.000	87
1877.000	77
1878.000	80
1879.000	80
1880.000	77
1881.000	78
1882.000	83
1883.000	83
1884.000	79
1885.000	75
1886.000	80
1887.000	81
1888.000	79
1889.000	81
1890.000	79
1891.000	84
1892.000	86
1893.000	84
1894.000	84
1895.000	85
1896.000	87
1897.000	91
1898.000	96
1899.000	103
1900.000	100
1901.000	108
1902.000	112
1903.000	110
1904.000	112
1905.000	120
1906.000	119
1907.000	120
1908.000	131
1909.000	126
1910.000	132
1911.000	137
1912.000	134
1913.000	134
1914.000	119
1915.000	124
1916.000	119
1917.000	125
1918.000	118
1919.000	109
1920.000	103
1921.000	107
1922.000	97
1923.000	96
1924.000	91
1925.000	92
1926.000	92
1927.000	81
1928.000	80
1929.000	79
1930.000	77
1931.000	76
1932.000	77
1933.000	69
1934.000	72
1935.000	75
1936.000	75
1937.000	71
1938.000	73
1939.000	70
1940.000	74
1941.000	71
1942.000	65
1943.000	76
1944.000	74
1945.000	69
1946.000	71
1947.000	77
1948.000	72
1949.000	71
1950.000	69
1951.000	71
1952.000	69
1953.000	64
1954.000	65
1955.000	66
1956.000	61
1957.000	58
1958.000	59
1959.000	58
1960.000	62
1961.000	59
1962.000	63
1963.000	57
1964.000	60
1965.000	56
1966.000	55
1967.000	51
1968.000	57
1969.000	53
1970.000	57
1971.000	53
1972.000	58
1973.000	54
1974.000	57
1975.000	56
1976.000	54
1977.000	55
1978.000	52
1979.000	52
1980.000	54
1981.000	51
1982.000	58
1983.000	51
1984.000	56
1985.000	56
1986.000	49
1987.000	57
1988.000	53
1989.000	54
1990.000	50
1991.000	54
1992.000	53
1993.000	56
1994.000	58
1995.000	56
1996.000	52
1997.000	54
1998.000	55
1999.000	52
2000.000	51
2001.000	50
2002.000	54
2003.000	55
2004.000	53
2005.000	55
2006.000	50
2007.000	53
2008.000	54
2009.000	53
2010.000	52
2011.000	51
2012.000	53
2013.000	54
2014.000	50
2015.000	52
2016.000	49
2017.000	51
2018.000	53
2019.000	55
2020.000	54
2021.000	51
2022.000	53
2023.000	50
2024.000	50
2025.000	52
2026.000	49
2027.000	50
2028.000	48
2029.000	49
2030.000	50
2031.000	51
2032.000	49
2033.000	51
2034.000	54
2035.000	50
2036.000	50
2037.000	52
2038.000	48
2039.000	49
2040.000	51
2041.000	49
2042.000	53
2043.000	52
2044.000	48
2045.000	50
2046.000	48
2047.000	50
2048.000	0
