Date:	23-Sep-20		Time:	11:32 PM		Version no:	0.00		Project name:	55		Sample name:	222		Section name:	section		Position	0.000000	mm	E0	0.000000	keV	E1	1.000000	keV/channel	sample surface	2.000000	cm	Tube anode:	Mo		Tube voltage:	30	kV	Tube current:	30	mA	gain	15		std. database			resultfile	result		matrix element	11		sample thickness	1.000000		air passage	0.560000	cm	comments	not in position		peaking_time	0.300000	m-sec	trigger_threshold	40.000000	V	mca_bin_width	2.000000	no:	number_mca_channels	2048.000000	no:	gap_time	2048.000000	m-sec	trigger_peaking_time	2048.000000	m-sec	GAINDAC	400		HIGHGAIN	400		TAURC	400		RCTAU	400		RCTAUFRAC	400		livetime	13.334824	seconds	runtime	15.000351	seconds	input_count_rate	47769.585089	cps	output_count_rate	42465.604889	cps	triggers	704307	seconds	events_in_run	618783	seconds	channel	content		1.000	0
2.000	0
3.000	0
4.000	0
5.000	0
6.000	0
7.000	0
8.000	0
9.000	0
10.000	0
11.000	0
12.000	0
13.000	0
14.000	0
15.000	0
16.000	0
17.000	0
18.000	0
19.000	0
20.000	0
21.000	0
22.000	0
23.000	0
24.000	0
25.000	0
26.000	0
27.000	0
28.000	0
29.000	0
30.000	0
31.000	0
32.000	0
33.000	1
34.000	0
35.000	0
36.000	0
37.000	0
38.000	1
39.000	0
40.000	0
41.000	0
42.000	0
43.000	0
44.000	0
45.000	0
46.000	0
47.000	1
48.000	1
49.000	1
50.000	1
51.000	2
52.000	2
53.000	2
54.000	3
55.000	5
56.000	6
57.000	10
58.000	14
59.000	15
60.000	23
61.000	26
62.000	27
63.000	30
64.000	29
65.000	27
66.000	28
67.000	28
68.000	27
69.000	26
70.000	26
71.000	26
72.000	26
73.000	25
74.000	23
75.000	25
76.000	24
77.000	25
78.000	24
79.000	23
80.000	24
81.000	23
82.000	25
83.000	24
84.000	26
85.000	27
86.000	27
87.000	24
88.000	25
89.000	24
90.000	26
91.000	22
92.000	23
93.000	21
94.000	25
95.000	22
96.000	20
97.000	19
98.000	21
99.000	20
100.000	21
101.000	19
102.000	19
103.000	20
104.000	22
105.000	20
106.000	21
107.000	19
108.000	21
109.000	19
110.000	17
111.000	18
112.000	19
113.000	16
114.000	19
115.000	19
116.000	16
117.000	18
118.000	17
119.000	19
120.000	19
121.000	18
122.000	17
123.000	18
124.000	18
125.000	17
126.000	17
127.000	15
128.000	19
129.000	14
130.000	14
131.000	17
132.000	17
133.000	16
134.000	16
135.000	15
136.000	18
137.000	15
138.000	15
139.000	19
140.000	19
141.000	20
142.000	20
143.000	24
144.000	24
145.000	25
146.000	26
147.000	26
148.000	24
149.000	20
150.000	20
151.000	20
152.000	17
153.000	17
154.000	17
155.000	16
156.000	15
157.000	17
158.000	14
159.000	14
160.000	15
161.000	13
162.000	15
163.000	16
164.000	17
165.000	20
166.000	25
167.000	26
168.000	30
169.000	36
170.000	37
171.000	37
172.000	33
173.000	31
174.000	31
175.000	27
176.000	26
177.000	24
178.000	25
179.000	27
180.000	35
181.000	38
182.000	48
183.000	62
184.000	83
185.000	110
186.000	140
187.000	191
188.000	234
189.000	261
190.000	300
191.000	304
192.000	295
193.000	257
194.000	220
195.000	176
196.000	132
197.000	98
198.000	65
199.000	47
200.000	31
201.000	25
202.000	18
203.000	19
204.000	17
205.000	17
206.000	15
207.000	18
208.000	20
209.000	17
210.000	18
211.000	16
212.000	20
213.000	21
214.000	22
215.000	23
216.000	30
217.000	33
218.000	35
219.000	42
220.000	50
221.000	51
222.000	52
223.000	60
224.000	61
225.000	57
226.000	53
227.000	41
228.000	41
229.000	30
230.000	30
231.000	25
232.000	22
233.000	20
234.000	17
235.000	16
236.000	14
237.000	14
238.000	14
239.000	15
240.000	15
241.000	14
242.000	15
243.000	15
244.000	18
245.000	18
246.000	21
247.000	27
248.000	35
249.000	44
250.000	61
251.000	81
252.000	106
253.000	138
254.000	157
255.000	189
256.000	195
257.000	205
258.000	196
259.000	185
260.000	165
261.000	140
262.000	105
263.000	85
264.000	60
265.000	47
266.000	33
267.000	28
268.000	27
269.000	24
270.000	27
271.000	27
272.000	28
273.000	32
274.000	36
275.000	38
276.000	38
277.000	38
278.000	36
279.000	35
280.000	34
281.000	33
282.000	36
283.000	44
284.000	46
285.000	53
286.000	68
287.000	77
288.000	75
289.000	84
290.000	86
291.000	82
292.000	75
293.000	65
294.000	62
295.000	53
296.000	41
297.000	34
298.000	29
299.000	28
300.000	25
301.000	25
302.000	27
303.000	25
304.000	26
305.000	26
306.000	28
307.000	30
308.000	30
309.000	33
310.000	36
311.000	34
312.000	40
313.000	40
314.000	45
315.000	51
316.000	62
317.000	72
318.000	85
319.000	105
320.000	122
321.000	139
322.000	156
323.000	177
324.000	185
325.000	176
326.000	161
327.000	157
328.000	139
329.000	114
330.000	99
331.000	84
332.000	61
333.000	55
334.000	41
335.000	41
336.000	38
337.000	39
338.000	40
339.000	43
340.000	51
341.000	59
342.000	74
343.000	87
344.000	116
345.000	165
346.000	235
347.000	354
348.000	575
349.000	898
350.000	1396
351.000	2209
352.000	3362
353.000	4985
354.000	7094
355.000	9669
356.000	12679
357.000	15864
358.000	18953
359.000	21742
360.000	23700
361.000	24701
362.000	24466
363.000	23215
364.000	20947
365.000	18118
366.000	14875
367.000	11721
368.000	8778
369.000	6292
370.000	4306
371.000	2852
372.000	1809
373.000	1115
374.000	690
375.000	435
376.000	293
377.000	216
378.000	202
379.000	223
380.000	257
381.000	340
382.000	450
383.000	619
384.000	843
385.000	1113
386.000	1467
387.000	1850
388.000	2329
389.000	2745
390.000	3191
391.000	3451
392.000	3671
393.000	3740
394.000	3575
395.000	3326
396.000	2956
397.000	2506
398.000	2065
399.000	1608
400.000	1206
401.000	860
402.000	596
403.000	398
404.000	262
405.000	157
406.000	97
407.000	60
408.000	35
409.000	25
410.000	15
411.000	12
412.000	10
413.000	10
414.000	7
415.000	9
416.000	8
417.000	8
418.000	9
419.000	7
420.000	8
421.000	9
422.000	8
423.000	7
424.000	7
425.000	9
426.000	11
427.000	11
428.000	13
429.000	14
430.000	17
431.000	25
432.000	30
433.000	37
434.000	48
435.000	61
436.000	69
437.000	92
438.000	93
439.000	99
440.000	109
441.000	114
442.000	114
443.000	97
444.000	95
445.000	82
446.000	72
447.000	66
448.000	51
449.000	47
450.000	37
451.000	32
452.000	26
453.000	25
454.000	25
455.000	20
456.000	20
457.000	21
458.000	19
459.000	17
460.000	18
461.000	16
462.000	13
463.000	14
464.000	12
465.000	14
466.000	14
467.000	14
468.000	11
469.000	13
470.000	11
471.000	17
472.000	16
473.000	17
474.000	15
475.000	17
476.000	21
477.000	24
478.000	26
479.000	26
480.000	31
481.000	29
482.000	32
483.000	30
484.000	27
485.000	28
486.000	27
487.000	24
488.000	23
489.000	20
490.000	20
491.000	18
492.000	18
493.000	14
494.000	12
495.000	15
496.000	13
497.000	14
498.000	14
499.000	15
500.000	13
501.000	14
502.000	17
503.000	15
504.000	16
505.000	15
506.000	15
507.000	16
508.000	17
509.000	16
510.000	17
511.000	19
512.000	20
513.000	20
514.000	19
515.000	21
516.000	23
517.000	23
518.000	24
519.000	23
520.000	23
521.000	26
522.000	30
523.000	30
524.000	32
525.000	29
526.000	39
527.000	39
528.000	38
529.000	43
530.000	37
531.000	37
532.000	37
533.000	36
534.000	33
535.000	27
536.000	28
537.000	21
538.000	21
539.000	23
540.000	23
541.000	21
542.000	22
543.000	21
544.000	20
545.000	21
546.000	18
547.000	20
548.000	21
549.000	20
550.000	22
551.000	24
552.000	25
553.000	20
554.000	25
555.000	26
556.000	27
557.000	27
558.000	29
559.000	31
560.000	31
561.000	35
562.000	37
563.000	41
564.000	53
565.000	61
566.000	74
567.000	91
568.000	106
569.000	123
570.000	155
571.000	174
572.000	198
573.000	224
574.000	232
575.000	241
576.000	255
577.000	247
578.000	237
579.000	219
580.000	213
581.000	183
582.000	152
583.000	131
584.000	114
585.000	90
586.000	74
587.000	59
588.000	47
589.000	42
590.000	36
591.000	31
592.000	29
593.000	26
594.000	29
595.000	29
596.000	26
597.000	25
598.000	26
599.000	28
600.000	27
601.000	29
602.000	30
603.000	32
604.000	35
605.000	38
606.000	43
607.000	48
608.000	64
609.000	84
610.000	108
611.000	145
612.000	199
613.000	271
614.000	370
615.000	496
616.000	640
617.000	811
618.000	1050
619.000	1221
620.000	1471
621.000	1664
622.000	1910
623.000	2049
624.000	2150
625.000	2230
626.000	2197
627.000	2129
628.000	2019
629.000	1840
630.000	1624
631.000	1409
632.000	1195
633.000	974
634.000	770
635.000	605
636.000	471
637.000	359
638.000	268
639.000	206
640.000	155
641.000	122
642.000	100
643.000	86
644.000	70
645.000	61
646.000	57
647.000	56
648.000	49
649.000	51
650.000	54
651.000	48
652.000	51
653.000	51
654.000	49
655.000	52
656.000	51
657.000	51
658.000	54
659.000	51
660.000	52
661.000	51
662.000	57
663.000	55
664.000	56
665.000	61
666.000	60
667.000	60
668.000	62
669.000	68
670.000	72
671.000	77
672.000	78
673.000	79
674.000	89
675.000	96
676.000	107
677.000	122
678.000	138
679.000	155
680.000	191
681.000	204
682.000	245
683.000	278
684.000	308
685.000	331
686.000	360
687.000	368
688.000	394
689.000	394
690.000	388
691.000	377
692.000	359
693.000	344
694.000	300
695.000	270
696.000	239
697.000	203
698.000	174
699.000	147
700.000	123
701.000	106
702.000	99
703.000	80
704.000	76
705.000	65
706.000	60
707.000	60
708.000	63
709.000	61
710.000	60
711.000	59
712.000	60
713.000	65
714.000	61
715.000	73
716.000	74
717.000	76
718.000	82
719.000	87
720.000	79
721.000	90
722.000	89
723.000	99
724.000	94
725.000	101
726.000	99
727.000	96
728.000	99
729.000	95
730.000	95
731.000	88
732.000	87
733.000	81
734.000	89
735.000	81
736.000	82
737.000	79
738.000	76
739.000	74
740.000	69
741.000	68
742.000	68
743.000	68
744.000	71
745.000	69
746.000	73
747.000	74
748.000	68
749.000	73
750.000	78
751.000	72
752.000	75
753.000	66
754.000	73
755.000	72
756.000	71
757.000	76
758.000	72
759.000	68
760.000	73
761.000	71
762.000	74
763.000	73
764.000	72
765.000	71
766.000	73
767.000	74
768.000	77
769.000	79
770.000	73
771.000	80
772.000	77
773.000	84
774.000	82
775.000	84
776.000	89
777.000	96
778.000	97
779.000	96
780.000	98
781.000	107
782.000	110
783.000	112
784.000	111
785.000	119
786.000	123
787.000	125
788.000	130
789.000	133
790.000	130
791.000	136
792.000	136
793.000	131
794.000	137
795.000	137
796.000	141
797.000	135
798.000	142
799.000	137
800.000	146
801.000	136
802.000	141
803.000	146
804.000	148
805.000	161
806.000	156
807.000	165
808.000	173
809.000	187
810.000	200
811.000	208
812.000	232
813.000	244
814.000	254
815.000	274
816.000	283
817.000	287
818.000	305
819.000	309
820.000	311
821.000	296
822.000	292
823.000	281
824.000	270
825.000	256
826.000	227
827.000	220
828.000	197
829.000	184
830.000	172
831.000	161
832.000	151
833.000	142
834.000	133
835.000	129
836.000	127
837.000	114
838.000	119
839.000	119
840.000	123
841.000	118
842.000	115
843.000	126
844.000	118
845.000	119
846.000	120
847.000	119
848.000	119
849.000	124
850.000	124
851.000	117
852.000	119
853.000	124
854.000	114
855.000	124
856.000	121
857.000	111
858.000	114
859.000	115
860.000	115
861.000	109
862.000	116
863.000	117
864.000	110
865.000	114
866.000	110
867.000	120
868.000	114
869.000	122
870.000	114
871.000	114
872.000	119
873.000	120
874.000	113
875.000	114
876.000	107
877.000	110
878.000	122
879.000	114
880.000	116
881.000	118
882.000	113
883.000	114
884.000	110
885.000	118
886.000	118
887.000	116
888.000	111
889.000	121
890.000	117
891.000	122
892.000	119
893.000	124
894.000	127
895.000	125
896.000	135
897.000	133
898.000	127
899.000	132
900.000	137
901.000	136
902.000	141
903.000	139
904.000	138
905.000	145
906.000	152
907.000	158
908.000	159
909.000	156
910.000	157
911.000	157
912.000	156
913.000	165
914.000	162
915.000	162
916.000	171
917.000	166
918.000	173
919.000	167
920.000	176
921.000	171
922.000	166
923.000	179
924.000	180
925.000	180
926.000	180
927.000	190
928.000	188
929.000	191
930.000	185
931.000	195
932.000	206
933.000	205
934.000	215
935.000	223
936.000	223
937.000	240
938.000	238
939.000	242
940.000	253
941.000	251
942.000	270
943.000	264
944.000	265
945.000	257
946.000	253
947.000	255
948.000	251
949.000	245
950.000	229
951.000	226
952.000	211
953.000	215
954.000	195
955.000	197
956.000	190
957.000	185
958.000	181
959.000	182
960.000	182
961.000	175
962.000	181
963.000	176
964.000	174
965.000	182
966.000	183
967.000	180
968.000	181
969.000	192
970.000	195
971.000	183
972.000	183
973.000	179
974.000	180
975.000	173
976.000	181
977.000	178
978.000	173
979.000	168
980.000	162
981.000	160
982.000	158
983.000	147
984.000	156
985.000	153
986.000	149
987.000	145
988.000	148
989.000	134
990.000	146
991.000	139
992.000	140
993.000	137
994.000	134
995.000	135
996.000	136
997.000	131
998.000	134
999.000	140
1000.000	133
1001.000	130
1002.000	132
1003.000	127
1004.000	134
1005.000	129
1006.000	134
1007.000	129
1008.000	131
1009.000	134
1010.000	132
1011.000	130
1012.000	135
1013.000	135
1014.000	135
1015.000	127
1016.000	128
1017.000	129
1018.000	135
1019.000	129
1020.000	141
1021.000	132
1022.000	135
1023.000	136
1024.000	136
1025.000	138
1026.000	142
1027.000	133
1028.000	133
1029.000	138
1030.000	135
1031.000	137
1032.000	143
1033.000	134
1034.000	138
1035.000	149
1036.000	142
1037.000	143
1038.000	140
1039.000	148
1040.000	144
1041.000	145
1042.000	146
1043.000	147
1044.000	145
1045.000	149
1046.000	150
1047.000	149
1048.000	146
1049.000	143
1050.000	154
1051.000	150
1052.000	151
1053.000	156
1054.000	149
1055.000	157
1056.000	152
1057.000	154
1058.000	162
1059.000	156
1060.000	159
1061.000	164
1062.000	154
1063.000	158
1064.000	160
1065.000	163
1066.000	150
1067.000	150
1068.000	155
1069.000	158
1070.000	160
1071.000	153
1072.000	157
1073.000	156
1074.000	150
1075.000	150
1076.000	156
1077.000	149
1078.000	158
1079.000	159
1080.000	155
1081.000	156
1082.000	157
1083.000	154
1084.000	151
1085.000	150
1086.000	154
1087.000	153
1088.000	162
1089.000	163
1090.000	155
1091.000	157
1092.000	160
1093.000	166
1094.000	170
1095.000	173
1096.000	164
1097.000	168
1098.000	167
1099.000	175
1100.000	169
1101.000	170
1102.000	170
1103.000	168
1104.000	173
1105.000	172
1106.000	176
1107.000	170
1108.000	164
1109.000	161
1110.000	164
1111.000	166
1112.000	159
1113.000	160
1114.000	159
1115.000	153
1116.000	165
1117.000	151
1118.000	150
1119.000	158
1120.000	161
1121.000	155
1122.000	157
1123.000	155
1124.000	156
1125.000	158
1126.000	161
1127.000	162
1128.000	159
1129.000	163
1130.000	161
1131.000	161
1132.000	162
1133.000	159
1134.000	174
1135.000	165
1136.000	165
1137.000	162
1138.000	162
1139.000	161
1140.000	166
1141.000	165
1142.000	166
1143.000	161
1144.000	170
1145.000	166
1146.000	162
1147.000	159
1148.000	167
1149.000	166
1150.000	173
1151.000	166
1152.000	178
1153.000	181
1154.000	178
1155.000	174
1156.000	175
1157.000	183
1158.000	178
1159.000	182
1160.000	190
1161.000	188
1162.000	182
1163.000	187
1164.000	178
1165.000	186
1166.000	177
1167.000	171
1168.000	183
1169.000	176
1170.000	165
1171.000	162
1172.000	169
1173.000	160
1174.000	163
1175.000	169
1176.000	161
1177.000	166
1178.000	165
1179.000	160
1180.000	156
1181.000	164
1182.000	160
1183.000	163
1184.000	162
1185.000	161
1186.000	159
1187.000	150
1188.000	155
1189.000	158
1190.000	158
1191.000	154
1192.000	157
1193.000	157
1194.000	160
1195.000	159
1196.000	151
1197.000	158
1198.000	162
1199.000	161
1200.000	162
1201.000	156
1202.000	162
1203.000	158
1204.000	160
1205.000	158
1206.000	161
1207.000	160
1208.000	169
1209.000	164
1210.000	165
1211.000	164
1212.000	160
1213.000	165
1214.000	163
1215.000	166
1216.000	158
1217.000	167
1218.000	164
1219.000	169
1220.000	162
1221.000	162
1222.000	162
1223.000	162
1224.000	165
1225.000	162
1226.000	166
1227.000	162
1228.000	170
1229.000	170
1230.000	157
1231.000	165
1232.000	165
1233.000	163
1234.000	161
1235.000	171
1236.000	161
1237.000	174
1238.000	167
1239.000	164
1240.000	165
1241.000	169
1242.000	168
1243.000	160
1244.000	165
1245.000	162
1246.000	165
1247.000	160
1248.000	168
1249.000	170
1250.000	162
1251.000	170
1252.000	164
1253.000	167
1254.000	169
1255.000	169
1256.000	163
1257.000	165
1258.000	164
1259.000	161
1260.000	160
1261.000	169
1262.000	172
1263.000	167
1264.000	165
1265.000	167
1266.000	161
1267.000	157
1268.000	160
1269.000	158
1270.000	158
1271.000	161
1272.000	157
1273.000	154
1274.000	160
1275.000	161
1276.000	165
1277.000	161
1278.000	160
1279.000	159
1280.000	163
1281.000	168
1282.000	165
1283.000	163
1284.000	173
1285.000	167
1286.000	168
1287.000	162
1288.000	169
1289.000	170
1290.000	164
1291.000	166
1292.000	168
1293.000	167
1294.000	170
1295.000	173
1296.000	175
1297.000	177
1298.000	168
1299.000	175
1300.000	186
1301.000	174
1302.000	172
1303.000	173
1304.000	171
1305.000	174
1306.000	175
1307.000	174
1308.000	172
1309.000	176
1310.000	175
1311.000	175
1312.000	175
1313.000	174
1314.000	170
1315.000	172
1316.000	167
1317.000	174
1318.000	164
1319.000	168
1320.000	172
1321.000	166
1322.000	174
1323.000	169
1324.000	168
1325.000	174
1326.000	165
1327.000	167
1328.000	169
1329.000	168
1330.000	170
1331.000	165
1332.000	175
1333.000	170
1334.000	179
1335.000	171
1336.000	175
1337.000	168
1338.000	174
1339.000	166
1340.000	175
1341.000	177
1342.000	174
1343.000	173
1344.000	174
1345.000	170
1346.000	182
1347.000	174
1348.000	179
1349.000	175
1350.000	180
1351.000	177
1352.000	179
1353.000	179
1354.000	193
1355.000	191
1356.000	206
1357.000	208
1358.000	220
1359.000	234
1360.000	255
1361.000	276
1362.000	292
1363.000	327
1364.000	355
1365.000	391
1366.000	438
1367.000	491
1368.000	529
1369.000	591
1370.000	639
1371.000	690
1372.000	758
1373.000	822
1374.000	886
1375.000	928
1376.000	940
1377.000	1006
1378.000	1014
1379.000	1024
1380.000	1032
1381.000	1031
1382.000	1021
1383.000	969
1384.000	943
1385.000	882
1386.000	829
1387.000	781
1388.000	713
1389.000	665
1390.000	596
1391.000	537
1392.000	494
1393.000	439
1394.000	392
1395.000	359
1396.000	317
1397.000	286
1398.000	266
1399.000	234
1400.000	220
1401.000	203
1402.000	202
1403.000	193
1404.000	183
1405.000	175
1406.000	173
1407.000	174
1408.000	168
1409.000	168
1410.000	168
1411.000	169
1412.000	170
1413.000	168
1414.000	164
1415.000	167
1416.000	167
1417.000	164
1418.000	170
1419.000	162
1420.000	170
1421.000	162
1422.000	179
1423.000	172
1424.000	162
1425.000	158
1426.000	170
1427.000	167
1428.000	164
1429.000	170
1430.000	174
1431.000	167
1432.000	160
1433.000	163
1434.000	165
1435.000	173
1436.000	172
1437.000	167
1438.000	173
1439.000	166
1440.000	167
1441.000	159
1442.000	176
1443.000	175
1444.000	167
1445.000	166
1446.000	169
1447.000	170
1448.000	176
1449.000	177
1450.000	171
1451.000	170
1452.000	178
1453.000	167
1454.000	174
1455.000	176
1456.000	180
1457.000	180
1458.000	178
1459.000	178
1460.000	175
1461.000	176
1462.000	176
1463.000	174
1464.000	182
1465.000	172
1466.000	176
1467.000	167
1468.000	168
1469.000	179
1470.000	177
1471.000	174
1472.000	171
1473.000	166
1474.000	171
1475.000	173
1476.000	163
1477.000	178
1478.000	173
1479.000	173
1480.000	173
1481.000	173
1482.000	175
1483.000	172
1484.000	176
1485.000	177
1486.000	168
1487.000	171
1488.000	170
1489.000	173
1490.000	167
1491.000	179
1492.000	167
1493.000	181
1494.000	174
1495.000	178
1496.000	173
1497.000	173
1498.000	175
1499.000	173
1500.000	173
1501.000	172
1502.000	175
1503.000	174
1504.000	176
1505.000	173
1506.000	180
1507.000	183
1508.000	176
1509.000	173
1510.000	178
1511.000	174
1512.000	181
1513.000	180
1514.000	191
1515.000	179
1516.000	184
1517.000	191
1518.000	185
1519.000	190
1520.000	184
1521.000	185
1522.000	191
1523.000	196
1524.000	200
1525.000	202
1526.000	208
1527.000	204
1528.000	210
1529.000	220
1530.000	241
1531.000	236
1532.000	247
1533.000	256
1534.000	271
1535.000	285
1536.000	277
1537.000	313
1538.000	321
1539.000	319
1540.000	329
1541.000	333
1542.000	346
1543.000	340
1544.000	349
1545.000	349
1546.000	345
1547.000	342
1548.000	340
1549.000	328
1550.000	326
1551.000	317
1552.000	316
1553.000	303
1554.000	295
1555.000	281
1556.000	289
1557.000	278
1558.000	265
1559.000	266
1560.000	268
1561.000	270
1562.000	269
1563.000	260
1564.000	264
1565.000	273
1566.000	274
1567.000	276
1568.000	282
1569.000	279
1570.000	293
1571.000	296
1572.000	296
1573.000	304
1574.000	315
1575.000	325
1576.000	328
1577.000	336
1578.000	347
1579.000	353
1580.000	356
1581.000	364
1582.000	385
1583.000	385
1584.000	397
1585.000	395
1586.000	416
1587.000	431
1588.000	433
1589.000	452
1590.000	468
1591.000	480
1592.000	486
1593.000	488
1594.000	505
1595.000	517
1596.000	524
1597.000	544
1598.000	543
1599.000	551
1600.000	561
1601.000	562
1602.000	569
1603.000	577
1604.000	567
1605.000	578
1606.000	585
1607.000	581
1608.000	586
1609.000	595
1610.000	578
1611.000	585
1612.000	576
1613.000	570
1614.000	556
1615.000	565
1616.000	562
1617.000	549
1618.000	534
1619.000	528
1620.000	518
1621.000	518
1622.000	498
1623.000	503
1624.000	477
1625.000	464
1626.000	456
1627.000	448
1628.000	427
1629.000	422
1630.000	425
1631.000	395
1632.000	393
1633.000	388
1634.000	383
1635.000	358
1636.000	353
1637.000	348
1638.000	332
1639.000	322
1640.000	313
1641.000	309
1642.000	306
1643.000	289
1644.000	278
1645.000	274
1646.000	262
1647.000	254
1648.000	245
1649.000	248
1650.000	248
1651.000	230
1652.000	236
1653.000	220
1654.000	222
1655.000	209
1656.000	211
1657.000	204
1658.000	200
1659.000	193
1660.000	194
1661.000	199
1662.000	185
1663.000	184
1664.000	193
1665.000	181
1666.000	174
1667.000	176
1668.000	170
1669.000	172
1670.000	172
1671.000	177
1672.000	177
1673.000	178
1674.000	170
1675.000	182
1676.000	180
1677.000	185
1678.000	195
1679.000	201
1680.000	204
1681.000	222
1682.000	228
1683.000	236
1684.000	250
1685.000	276
1686.000	290
1687.000	310
1688.000	323
1689.000	354
1690.000	365
1691.000	394
1692.000	404
1693.000	446
1694.000	460
1695.000	468
1696.000	497
1697.000	507
1698.000	528
1699.000	524
1700.000	533
1701.000	558
1702.000	551
1703.000	539
1704.000	538
1705.000	522
1706.000	503
1707.000	486
1708.000	466
1709.000	440
1710.000	432
1711.000	401
1712.000	376
1713.000	353
1714.000	325
1715.000	304
1716.000	292
1717.000	258
1718.000	234
1719.000	223
1720.000	203
1721.000	193
1722.000	185
1723.000	174
1724.000	174
1725.000	154
1726.000	150
1727.000	143
1728.000	143
1729.000	149
1730.000	136
1731.000	133
1732.000	132
1733.000	142
1734.000	136
1735.000	141
1736.000	143
1737.000	133
1738.000	134
1739.000	140
1740.000	131
1741.000	135
1742.000	138
1743.000	146
1744.000	136
1745.000	136
1746.000	140
1747.000	141
1748.000	141
1749.000	144
1750.000	141
1751.000	137
1752.000	135
1753.000	139
1754.000	134
1755.000	144
1756.000	142
1757.000	148
1758.000	143
1759.000	144
1760.000	153
1761.000	140
1762.000	150
1763.000	147
1764.000	152
1765.000	155
1766.000	143
1767.000	161
1768.000	159
1769.000	160
1770.000	163
1771.000	163
1772.000	161
1773.000	160
1774.000	168
1775.000	172
1776.000	174
1777.000	174
1778.000	176
1779.000	175
1780.000	181
1781.000	171
1782.000	176
1783.000	186
1784.000	184
1785.000	183
1786.000	178
1787.000	182
1788.000	180
1789.000	190
1790.000	182
1791.000	180
1792.000	187
1793.000	191
1794.000	189
1795.000	185
1796.000	186
1797.000	191
1798.000	181
1799.000	181
1800.000	181
1801.000	180
1802.000	185
1803.000	184
1804.000	182
1805.000	175
1806.000	170
1807.000	174
1808.000	175
1809.000	167
1810.000	175
1811.000	168
1812.000	166
1813.000	162
1814.000	163
1815.000	158
1816.000	152
1817.000	151
1818.000	155
1819.000	152
1820.000	151
1821.000	148
1822.000	136
1823.000	141
1824.000	139
1825.000	136
1826.000	132
1827.000	132
1828.000	134
1829.000	131
1830.000	131
1831.000	129
1832.000	124
1833.000	121
1834.000	115
1835.000	117
1836.000	115
1837.000	112
1838.000	115
1839.000	107
1840.000	107
1841.000	113
1842.000	105
1843.000	104
1844.000	103
1845.000	99
1846.000	98
1847.000	99
1848.000	95
1849.000	93
1850.000	94
1851.000	92
1852.000	89
1853.000	93
1854.000	89
1855.000	85
1856.000	85
1857.000	86
1858.000	89
1859.000	87
1860.000	87
1861.000	81
1862.000	82
1863.000	82
1864.000	78
1865.000	85
1866.000	80
1867.000	79
1868.000	82
1869.000	80
1870.000	81
1871.000	78
1872.000	77
1873.000	78
1874.000	72
1875.000	70
1876.000	72
1877.000	76
1878.000	73
1879.000	72
1880.000	74
1881.000	70
1882.000	73
1883.000	71
1884.000	71
1885.000	71
1886.000	70
1887.000	73
1888.000	71
1889.000	68
1890.000	67
1891.000	70
1892.000	73
1893.000	82
1894.000	84
1895.000	79
1896.000	83
1897.000	86
1898.000	88
1899.000	92
1900.000	92
1901.000	96
1902.000	94
1903.000	101
1904.000	107
1905.000	107
1906.000	117
1907.000	113
1908.000	118
1909.000	118
1910.000	119
1911.000	121
1912.000	117
1913.000	118
1914.000	113
1915.000	117
1916.000	116
1917.000	109
1918.000	109
1919.000	102
1920.000	101
1921.000	94
1922.000	87
1923.000	89
1924.000	83
1925.000	83
1926.000	84
1927.000	78
1928.000	71
1929.000	74
1930.000	70
1931.000	70
1932.000	70
1933.000	71
1934.000	65
1935.000	67
1936.000	65
1937.000	66
1938.000	65
1939.000	62
1940.000	66
1941.000	65
1942.000	65
1943.000	64
1944.000	63
1945.000	66
1946.000	64
1947.000	67
1948.000	66
1949.000	60
1950.000	60
1951.000	60
1952.000	58
1953.000	63
1954.000	58
1955.000	58
1956.000	55
1957.000	58
1958.000	57
1959.000	56
1960.000	55
1961.000	55
1962.000	56
1963.000	53
1964.000	49
1965.000	55
1966.000	53
1967.000	50
1968.000	52
1969.000	51
1970.000	55
1971.000	51
1972.000	51
1973.000	50
1974.000	50
1975.000	50
1976.000	48
1977.000	50
1978.000	48
1979.000	50
1980.000	52
1981.000	52
1982.000	47
1983.000	48
1984.000	47
1985.000	52
1986.000	50
1987.000	52
1988.000	50
1989.000	49
1990.000	49
1991.000	46
1992.000	45
1993.000	48
1994.000	47
1995.000	46
1996.000	51
1997.000	49
1998.000	46
1999.000	47
2000.000	46
2001.000	49
2002.000	48
2003.000	48
2004.000	52
2005.000	47
2006.000	45
2007.000	44
2008.000	49
2009.000	45
2010.000	48
2011.000	45
2012.000	49
2013.000	45
2014.000	46
2015.000	47
2016.000	45
2017.000	45
2018.000	43
2019.000	49
2020.000	46
2021.000	46
2022.000	44
2023.000	52
2024.000	45
2025.000	45
2026.000	47
2027.000	45
2028.000	46
2029.000	46
2030.000	43
2031.000	47
2032.000	41
2033.000	47
2034.000	43
2035.000	46
2036.000	45
2037.000	46
2038.000	45
2039.000	43
2040.000	44
2041.000	45
2042.000	40
2043.000	45
2044.000	48
2045.000	43
2046.000	46
2047.000	40
2048.000	0
