Date:	17-Sep-20		Time:	11:47 PM		Version no:	0.00		Project name:	55		Sample name:	222		Section name:	section		Position	0.000000	mm	E0	0.000000	keV	E1	1.000000	keV/channel	sample surface	2.000000	cm	Tube anode:	Mo		Tube voltage:	30	kV	Tube current:	30	mA	gain	15		std. database			resultfile	result		matrix element	11		sample thickness	1.000000		air passage	0.560000	cm	comments	not in position		peaking_time	0.300000	m-sec	trigger_threshold	40.000000	V	mca_bin_width	2.000000	no:	number_mca_channels	2048.000000	no:	gap_time	2048.000000	m-sec	trigger_peaking_time	2048.000000	m-sec	GAINDAC	400		HIGHGAIN	400		TAURC	400		RCTAU	400		RCTAUFRAC	400		livetime	13.014294	seconds	runtime	15.000232	seconds	input_count_rate	80431.410221	cps	output_count_rate	69782.785033	cps	triggers	1173264	seconds	events_in_run	1020480	seconds	channel	content		1.000	0
2.000	0
3.000	0
4.000	0
5.000	0
6.000	0
7.000	0
8.000	0
9.000	0
10.000	0
11.000	0
12.000	0
13.000	0
14.000	0
15.000	0
16.000	0
17.000	0
18.000	0
19.000	0
20.000	0
21.000	0
22.000	0
23.000	0
24.000	0
25.000	0
26.000	0
27.000	0
28.000	0
29.000	0
30.000	0
31.000	0
32.000	0
33.000	0
34.000	0
35.000	0
36.000	0
37.000	0
38.000	0
39.000	0
40.000	0
41.000	0
42.000	0
43.000	1
44.000	0
45.000	1
46.000	0
47.000	1
48.000	1
49.000	1
50.000	0
51.000	1
52.000	2
53.000	3
54.000	2
55.000	4
56.000	6
57.000	10
58.000	13
59.000	16
60.000	22
61.000	28
62.000	29
63.000	29
64.000	33
65.000	30
66.000	31
67.000	28
68.000	24
69.000	32
70.000	27
71.000	25
72.000	26
73.000	27
74.000	25
75.000	25
76.000	25
77.000	29
78.000	25
79.000	26
80.000	27
81.000	24
82.000	22
83.000	26
84.000	26
85.000	25
86.000	26
87.000	23
88.000	24
89.000	22
90.000	24
91.000	25
92.000	23
93.000	22
94.000	22
95.000	23
96.000	24
97.000	22
98.000	20
99.000	24
100.000	18
101.000	21
102.000	21
103.000	22
104.000	22
105.000	20
106.000	19
107.000	20
108.000	21
109.000	18
110.000	23
111.000	18
112.000	20
113.000	21
114.000	16
115.000	17
116.000	18
117.000	20
118.000	17
119.000	17
120.000	14
121.000	17
122.000	17
123.000	18
124.000	16
125.000	17
126.000	17
127.000	17
128.000	14
129.000	15
130.000	17
131.000	14
132.000	17
133.000	15
134.000	14
135.000	13
136.000	15
137.000	15
138.000	16
139.000	16
140.000	20
141.000	24
142.000	26
143.000	24
144.000	28
145.000	29
146.000	34
147.000	30
148.000	29
149.000	28
150.000	26
151.000	26
152.000	26
153.000	25
154.000	27
155.000	20
156.000	25
157.000	19
158.000	18
159.000	14
160.000	18
161.000	16
162.000	20
163.000	23
164.000	35
165.000	47
166.000	61
167.000	84
168.000	100
169.000	120
170.000	119
171.000	131
172.000	114
173.000	110
174.000	89
175.000	77
176.000	59
177.000	47
178.000	35
179.000	31
180.000	28
181.000	31
182.000	27
183.000	33
184.000	35
185.000	43
186.000	55
187.000	68
188.000	76
189.000	91
190.000	103
191.000	108
192.000	101
193.000	97
194.000	76
195.000	62
196.000	50
197.000	38
198.000	26
199.000	25
200.000	18
201.000	15
202.000	14
203.000	12
204.000	13
205.000	13
206.000	13
207.000	11
208.000	11
209.000	13
210.000	11
211.000	12
212.000	13
213.000	12
214.000	15
215.000	13
216.000	16
217.000	15
218.000	17
219.000	16
220.000	21
221.000	23
222.000	23
223.000	22
224.000	23
225.000	24
226.000	22
227.000	23
228.000	19
229.000	13
230.000	13
231.000	14
232.000	13
233.000	10
234.000	10
235.000	12
236.000	9
237.000	10
238.000	9
239.000	11
240.000	10
241.000	10
242.000	9
243.000	11
244.000	10
245.000	11
246.000	12
247.000	14
248.000	17
249.000	22
250.000	28
251.000	35
252.000	46
253.000	60
254.000	76
255.000	78
256.000	89
257.000	88
258.000	90
259.000	85
260.000	72
261.000	63
262.000	46
263.000	38
264.000	29
265.000	24
266.000	22
267.000	20
268.000	18
269.000	21
270.000	21
271.000	19
272.000	22
273.000	22
274.000	23
275.000	22
276.000	22
277.000	23
278.000	22
279.000	20
280.000	20
281.000	21
282.000	26
283.000	30
284.000	35
285.000	44
286.000	53
287.000	63
288.000	66
289.000	70
290.000	68
291.000	66
292.000	61
293.000	55
294.000	47
295.000	35
296.000	31
297.000	24
298.000	20
299.000	15
300.000	16
301.000	15
302.000	14
303.000	13
304.000	14
305.000	16
306.000	16
307.000	17
308.000	20
309.000	26
310.000	26
311.000	33
312.000	39
313.000	52
314.000	71
315.000	102
316.000	138
317.000	199
318.000	272
319.000	370
320.000	470
321.000	580
322.000	658
323.000	731
324.000	765
325.000	766
326.000	734
327.000	678
328.000	591
329.000	483
330.000	377
331.000	276
332.000	199
333.000	148
334.000	94
335.000	61
336.000	45
337.000	35
338.000	30
339.000	28
340.000	34
341.000	37
342.000	44
343.000	54
344.000	73
345.000	105
346.000	134
347.000	188
348.000	267
349.000	381
350.000	561
351.000	828
352.000	1189
353.000	1714
354.000	2360
355.000	3191
356.000	4126
357.000	5149
358.000	6126
359.000	6975
360.000	7626
361.000	7893
362.000	7864
363.000	7448
364.000	6729
365.000	5812
366.000	4754
367.000	3748
368.000	2822
369.000	2037
370.000	1394
371.000	916
372.000	580
373.000	364
374.000	223
375.000	140
376.000	93
377.000	73
378.000	68
379.000	76
380.000	84
381.000	111
382.000	148
383.000	201
384.000	262
385.000	364
386.000	459
387.000	577
388.000	730
389.000	869
390.000	980
391.000	1085
392.000	1159
393.000	1176
394.000	1144
395.000	1067
396.000	947
397.000	791
398.000	665
399.000	526
400.000	389
401.000	282
402.000	196
403.000	138
404.000	90
405.000	59
406.000	38
407.000	25
408.000	20
409.000	17
410.000	12
411.000	9
412.000	12
413.000	8
414.000	8
415.000	8
416.000	8
417.000	8
418.000	9
419.000	8
420.000	9
421.000	9
422.000	10
423.000	10
424.000	13
425.000	17
426.000	17
427.000	25
428.000	33
429.000	52
430.000	63
431.000	100
432.000	144
433.000	195
434.000	250
435.000	320
436.000	406
437.000	482
438.000	556
439.000	608
440.000	651
441.000	655
442.000	662
443.000	616
444.000	563
445.000	487
446.000	415
447.000	333
448.000	275
449.000	212
450.000	167
451.000	131
452.000	105
453.000	89
454.000	77
455.000	64
456.000	58
457.000	55
458.000	50
459.000	48
460.000	43
461.000	38
462.000	33
463.000	25
464.000	29
465.000	27
466.000	27
467.000	28
468.000	28
469.000	30
470.000	36
471.000	42
472.000	46
473.000	55
474.000	62
475.000	73
476.000	80
477.000	90
478.000	100
479.000	115
480.000	123
481.000	133
482.000	135
483.000	129
484.000	121
485.000	122
486.000	112
487.000	95
488.000	82
489.000	66
490.000	58
491.000	53
492.000	42
493.000	34
494.000	29
495.000	27
496.000	25
497.000	21
498.000	20
499.000	21
500.000	23
501.000	23
502.000	23
503.000	22
504.000	24
505.000	27
506.000	29
507.000	26
508.000	25
509.000	34
510.000	27
511.000	33
512.000	33
513.000	37
514.000	38
515.000	36
516.000	36
517.000	36
518.000	37
519.000	43
520.000	39
521.000	43
522.000	49
523.000	50
524.000	53
525.000	58
526.000	60
527.000	66
528.000	65
529.000	61
530.000	60
531.000	60
532.000	60
533.000	53
534.000	50
535.000	46
536.000	43
537.000	41
538.000	37
539.000	33
540.000	32
541.000	27
542.000	29
543.000	30
544.000	32
545.000	31
546.000	28
547.000	30
548.000	29
549.000	31
550.000	31
551.000	30
552.000	28
553.000	30
554.000	31
555.000	31
556.000	30
557.000	36
558.000	36
559.000	37
560.000	39
561.000	44
562.000	45
563.000	60
564.000	69
565.000	84
566.000	104
567.000	126
568.000	163
569.000	188
570.000	220
571.000	271
572.000	305
573.000	339
574.000	363
575.000	386
576.000	399
577.000	376
578.000	380
579.000	356
580.000	319
581.000	289
582.000	247
583.000	206
584.000	173
585.000	144
586.000	115
587.000	97
588.000	79
589.000	63
590.000	58
591.000	53
592.000	52
593.000	49
594.000	46
595.000	47
596.000	54
597.000	51
598.000	52
599.000	53
600.000	57
601.000	60
602.000	60
603.000	72
604.000	77
605.000	95
606.000	112
607.000	145
608.000	199
609.000	275
610.000	388
611.000	554
612.000	788
613.000	1112
614.000	1540
615.000	2114
616.000	2766
617.000	3562
618.000	4501
619.000	5526
620.000	6494
621.000	7550
622.000	8449
623.000	9197
624.000	9646
625.000	9900
626.000	9881
627.000	9559
628.000	8904
629.000	8046
630.000	7193
631.000	6163
632.000	5097
633.000	4146
634.000	3251
635.000	2494
636.000	1847
637.000	1368
638.000	979
639.000	679
640.000	477
641.000	336
642.000	241
643.000	172
644.000	133
645.000	105
646.000	94
647.000	77
648.000	78
649.000	71
650.000	71
651.000	71
652.000	69
653.000	71
654.000	71
655.000	68
656.000	68
657.000	69
658.000	71
659.000	70
660.000	74
661.000	76
662.000	83
663.000	76
664.000	82
665.000	85
666.000	85
667.000	92
668.000	90
669.000	104
670.000	110
671.000	128
672.000	137
673.000	150
674.000	180
675.000	208
676.000	262
677.000	317
678.000	403
679.000	487
680.000	593
681.000	738
682.000	864
683.000	1015
684.000	1182
685.000	1317
686.000	1428
687.000	1538
688.000	1598
689.000	1621
690.000	1587
691.000	1546
692.000	1451
693.000	1356
694.000	1197
695.000	1043
696.000	897
697.000	736
698.000	606
699.000	484
700.000	388
701.000	296
702.000	235
703.000	187
704.000	145
705.000	113
706.000	99
707.000	84
708.000	76
709.000	71
710.000	70
711.000	63
712.000	66
713.000	63
714.000	69
715.000	63
716.000	67
717.000	72
718.000	73
719.000	77
720.000	76
721.000	79
722.000	86
723.000	84
724.000	82
725.000	91
726.000	89
727.000	100
728.000	92
729.000	97
730.000	97
731.000	99
732.000	91
733.000	91
734.000	95
735.000	86
736.000	87
737.000	84
738.000	84
739.000	81
740.000	77
741.000	73
742.000	76
743.000	74
744.000	73
745.000	72
746.000	73
747.000	79
748.000	71
749.000	76
750.000	70
751.000	74
752.000	76
753.000	72
754.000	73
755.000	78
756.000	72
757.000	79
758.000	77
759.000	74
760.000	79
761.000	81
762.000	83
763.000	83
764.000	82
765.000	84
766.000	85
767.000	84
768.000	84
769.000	88
770.000	88
771.000	85
772.000	91
773.000	92
774.000	90
775.000	99
776.000	95
777.000	103
778.000	106
779.000	109
780.000	114
781.000	118
782.000	118
783.000	122
784.000	124
785.000	134
786.000	136
787.000	132
788.000	141
789.000	135
790.000	141
791.000	141
792.000	149
793.000	151
794.000	153
795.000	154
796.000	155
797.000	156
798.000	163
799.000	156
800.000	162
801.000	160
802.000	164
803.000	164
804.000	165
805.000	170
806.000	172
807.000	177
808.000	189
809.000	188
810.000	202
811.000	213
812.000	236
813.000	246
814.000	257
815.000	285
816.000	287
817.000	297
818.000	303
819.000	309
820.000	302
821.000	307
822.000	294
823.000	282
824.000	266
825.000	250
826.000	235
827.000	221
828.000	207
829.000	186
830.000	177
831.000	170
832.000	155
833.000	157
834.000	144
835.000	155
836.000	152
837.000	152
838.000	155
839.000	152
840.000	159
841.000	164
842.000	159
843.000	170
844.000	164
845.000	160
846.000	156
847.000	164
848.000	159
849.000	151
850.000	139
851.000	144
852.000	135
853.000	134
854.000	130
855.000	132
856.000	128
857.000	125
858.000	125
859.000	126
860.000	121
861.000	125
862.000	122
863.000	125
864.000	131
865.000	124
866.000	131
867.000	132
868.000	124
869.000	126
870.000	123
871.000	130
872.000	127
873.000	120
874.000	126
875.000	125
876.000	131
877.000	125
878.000	126
879.000	127
880.000	127
881.000	132
882.000	130
883.000	136
884.000	130
885.000	133
886.000	133
887.000	135
888.000	135
889.000	138
890.000	143
891.000	143
892.000	143
893.000	150
894.000	148
895.000	147
896.000	159
897.000	159
898.000	166
899.000	158
900.000	172
901.000	167
902.000	172
903.000	178
904.000	173
905.000	175
906.000	179
907.000	180
908.000	187
909.000	192
910.000	179
911.000	192
912.000	182
913.000	184
914.000	194
915.000	190
916.000	187
917.000	194
918.000	192
919.000	189
920.000	193
921.000	187
922.000	205
923.000	195
924.000	195
925.000	204
926.000	209
927.000	199
928.000	207
929.000	210
930.000	212
931.000	219
932.000	227
933.000	233
934.000	231
935.000	236
936.000	243
937.000	248
938.000	264
939.000	263
940.000	272
941.000	284
942.000	274
943.000	288
944.000	285
945.000	276
946.000	273
947.000	273
948.000	272
949.000	256
950.000	239
951.000	240
952.000	224
953.000	224
954.000	210
955.000	208
956.000	211
957.000	199
958.000	193
959.000	190
960.000	193
961.000	187
962.000	179
963.000	197
964.000	187
965.000	192
966.000	196
967.000	199
968.000	189
969.000	197
970.000	196
971.000	194
972.000	196
973.000	198
974.000	198
975.000	197
976.000	190
977.000	186
978.000	184
979.000	180
980.000	182
981.000	171
982.000	168
983.000	169
984.000	159
985.000	164
986.000	170
987.000	164
988.000	160
989.000	156
990.000	154
991.000	159
992.000	158
993.000	155
994.000	149
995.000	152
996.000	146
997.000	153
998.000	153
999.000	147
1000.000	150
1001.000	152
1002.000	143
1003.000	148
1004.000	145
1005.000	147
1006.000	154
1007.000	156
1008.000	145
1009.000	144
1010.000	145
1011.000	145
1012.000	147
1013.000	147
1014.000	143
1015.000	148
1016.000	147
1017.000	146
1018.000	156
1019.000	152
1020.000	155
1021.000	155
1022.000	154
1023.000	154
1024.000	156
1025.000	150
1026.000	149
1027.000	157
1028.000	156
1029.000	155
1030.000	157
1031.000	152
1032.000	155
1033.000	150
1034.000	158
1035.000	158
1036.000	158
1037.000	154
1038.000	159
1039.000	163
1040.000	159
1041.000	156
1042.000	162
1043.000	165
1044.000	163
1045.000	152
1046.000	160
1047.000	166
1048.000	164
1049.000	159
1050.000	162
1051.000	165
1052.000	167
1053.000	165
1054.000	170
1055.000	169
1056.000	162
1057.000	175
1058.000	179
1059.000	168
1060.000	172
1061.000	174
1062.000	172
1063.000	173
1064.000	169
1065.000	171
1066.000	171
1067.000	167
1068.000	175
1069.000	175
1070.000	169
1071.000	169
1072.000	170
1073.000	172
1074.000	167
1075.000	176
1076.000	174
1077.000	175
1078.000	161
1079.000	171
1080.000	168
1081.000	168
1082.000	172
1083.000	167
1084.000	173
1085.000	164
1086.000	179
1087.000	180
1088.000	169
1089.000	177
1090.000	182
1091.000	175
1092.000	180
1093.000	173
1094.000	172
1095.000	180
1096.000	179
1097.000	189
1098.000	181
1099.000	188
1100.000	192
1101.000	189
1102.000	184
1103.000	184
1104.000	186
1105.000	188
1106.000	179
1107.000	180
1108.000	182
1109.000	183
1110.000	180
1111.000	183
1112.000	177
1113.000	176
1114.000	172
1115.000	171
1116.000	172
1117.000	179
1118.000	166
1119.000	168
1120.000	178
1121.000	174
1122.000	175
1123.000	173
1124.000	176
1125.000	184
1126.000	170
1127.000	173
1128.000	178
1129.000	184
1130.000	173
1131.000	181
1132.000	174
1133.000	180
1134.000	168
1135.000	179
1136.000	175
1137.000	175
1138.000	182
1139.000	170
1140.000	177
1141.000	177
1142.000	179
1143.000	174
1144.000	178
1145.000	169
1146.000	180
1147.000	176
1148.000	181
1149.000	180
1150.000	184
1151.000	177
1152.000	190
1153.000	187
1154.000	191
1155.000	189
1156.000	190
1157.000	193
1158.000	194
1159.000	201
1160.000	203
1161.000	198
1162.000	207
1163.000	195
1164.000	201
1165.000	201
1166.000	198
1167.000	190
1168.000	194
1169.000	190
1170.000	187
1171.000	195
1172.000	185
1173.000	177
1174.000	185
1175.000	182
1176.000	172
1177.000	180
1178.000	169
1179.000	179
1180.000	172
1181.000	175
1182.000	179
1183.000	180
1184.000	168
1185.000	178
1186.000	169
1187.000	183
1188.000	169
1189.000	176
1190.000	175
1191.000	172
1192.000	179
1193.000	173
1194.000	176
1195.000	178
1196.000	181
1197.000	175
1198.000	175
1199.000	168
1200.000	173
1201.000	178
1202.000	178
1203.000	177
1204.000	177
1205.000	175
1206.000	170
1207.000	174
1208.000	180
1209.000	177
1210.000	181
1211.000	173
1212.000	181
1213.000	184
1214.000	177
1215.000	175
1216.000	174
1217.000	185
1218.000	183
1219.000	177
1220.000	179
1221.000	185
1222.000	185
1223.000	182
1224.000	179
1225.000	181
1226.000	183
1227.000	185
1228.000	184
1229.000	177
1230.000	182
1231.000	183
1232.000	196
1233.000	183
1234.000	187
1235.000	187
1236.000	182
1237.000	189
1238.000	185
1239.000	186
1240.000	180
1241.000	184
1242.000	192
1243.000	189
1244.000	185
1245.000	188
1246.000	193
1247.000	180
1248.000	190
1249.000	184
1250.000	176
1251.000	187
1252.000	189
1253.000	191
1254.000	192
1255.000	188
1256.000	187
1257.000	189
1258.000	186
1259.000	189
1260.000	191
1261.000	187
1262.000	194
1263.000	183
1264.000	190
1265.000	187
1266.000	195
1267.000	186
1268.000	189
1269.000	184
1270.000	186
1271.000	181
1272.000	181
1273.000	187
1274.000	192
1275.000	183
1276.000	194
1277.000	190
1278.000	186
1279.000	186
1280.000	183
1281.000	188
1282.000	177
1283.000	181
1284.000	193
1285.000	197
1286.000	193
1287.000	192
1288.000	193
1289.000	197
1290.000	205
1291.000	203
1292.000	207
1293.000	214
1294.000	213
1295.000	215
1296.000	217
1297.000	225
1298.000	222
1299.000	230
1300.000	231
1301.000	238
1302.000	238
1303.000	241
1304.000	234
1305.000	242
1306.000	235
1307.000	237
1308.000	233
1309.000	228
1310.000	231
1311.000	227
1312.000	220
1313.000	217
1314.000	225
1315.000	211
1316.000	212
1317.000	219
1318.000	204
1319.000	203
1320.000	206
1321.000	200
1322.000	203
1323.000	195
1324.000	200
1325.000	190
1326.000	197
1327.000	186
1328.000	190
1329.000	193
1330.000	188
1331.000	191
1332.000	191
1333.000	189
1334.000	196
1335.000	197
1336.000	186
1337.000	191
1338.000	186
1339.000	184
1340.000	192
1341.000	194
1342.000	190
1343.000	191
1344.000	195
1345.000	190
1346.000	192
1347.000	198
1348.000	200
1349.000	201
1350.000	198
1351.000	190
1352.000	198
1353.000	199
1354.000	211
1355.000	203
1356.000	204
1357.000	210
1358.000	227
1359.000	216
1360.000	231
1361.000	250
1362.000	250
1363.000	261
1364.000	282
1365.000	291
1366.000	316
1367.000	337
1368.000	366
1369.000	382
1370.000	419
1371.000	442
1372.000	477
1373.000	483
1374.000	517
1375.000	543
1376.000	560
1377.000	574
1378.000	587
1379.000	584
1380.000	589
1381.000	599
1382.000	591
1383.000	567
1384.000	559
1385.000	535
1386.000	506
1387.000	481
1388.000	441
1389.000	406
1390.000	389
1391.000	370
1392.000	342
1393.000	318
1394.000	295
1395.000	266
1396.000	258
1397.000	244
1398.000	225
1399.000	228
1400.000	214
1401.000	220
1402.000	205
1403.000	205
1404.000	199
1405.000	196
1406.000	190
1407.000	200
1408.000	195
1409.000	199
1410.000	193
1411.000	187
1412.000	191
1413.000	190
1414.000	191
1415.000	191
1416.000	189
1417.000	199
1418.000	185
1419.000	191
1420.000	188
1421.000	190
1422.000	197
1423.000	193
1424.000	189
1425.000	191
1426.000	190
1427.000	189
1428.000	192
1429.000	190
1430.000	185
1431.000	199
1432.000	193
1433.000	191
1434.000	194
1435.000	198
1436.000	192
1437.000	201
1438.000	191
1439.000	188
1440.000	202
1441.000	199
1442.000	190
1443.000	205
1444.000	199
1445.000	203
1446.000	199
1447.000	199
1448.000	199
1449.000	210
1450.000	204
1451.000	213
1452.000	211
1453.000	218
1454.000	215
1455.000	220
1456.000	220
1457.000	218
1458.000	227
1459.000	215
1460.000	214
1461.000	217
1462.000	218
1463.000	218
1464.000	222
1465.000	210
1466.000	213
1467.000	198
1468.000	202
1469.000	203
1470.000	203
1471.000	201
1472.000	207
1473.000	208
1474.000	200
1475.000	202
1476.000	193
1477.000	198
1478.000	202
1479.000	195
1480.000	204
1481.000	198
1482.000	202
1483.000	189
1484.000	199
1485.000	199
1486.000	201
1487.000	205
1488.000	206
1489.000	196
1490.000	205
1491.000	199
1492.000	199
1493.000	195
1494.000	201
1495.000	210
1496.000	204
1497.000	204
1498.000	197
1499.000	198
1500.000	204
1501.000	202
1502.000	201
1503.000	202
1504.000	207
1505.000	198
1506.000	209
1507.000	209
1508.000	207
1509.000	206
1510.000	215
1511.000	215
1512.000	216
1513.000	216
1514.000	223
1515.000	227
1516.000	231
1517.000	227
1518.000	239
1519.000	243
1520.000	247
1521.000	269
1522.000	274
1523.000	273
1524.000	292
1525.000	300
1526.000	305
1527.000	322
1528.000	335
1529.000	353
1530.000	348
1531.000	366
1532.000	383
1533.000	379
1534.000	389
1535.000	407
1536.000	411
1537.000	435
1538.000	426
1539.000	414
1540.000	424
1541.000	418
1542.000	424
1543.000	413
1544.000	409
1545.000	392
1546.000	395
1547.000	382
1548.000	371
1549.000	362
1550.000	347
1551.000	338
1552.000	326
1553.000	319
1554.000	314
1555.000	314
1556.000	302
1557.000	301
1558.000	298
1559.000	300
1560.000	299
1561.000	296
1562.000	304
1563.000	303
1564.000	294
1565.000	311
1566.000	311
1567.000	315
1568.000	323
1569.000	326
1570.000	331
1571.000	341
1572.000	360
1573.000	367
1574.000	372
1575.000	374
1576.000	390
1577.000	406
1578.000	410
1579.000	424
1580.000	429
1581.000	446
1582.000	449
1583.000	474
1584.000	479
1585.000	496
1586.000	509
1587.000	515
1588.000	534
1589.000	549
1590.000	568
1591.000	565
1592.000	600
1593.000	612
1594.000	624
1595.000	626
1596.000	622
1597.000	645
1598.000	664
1599.000	681
1600.000	696
1601.000	678
1602.000	691
1603.000	700
1604.000	709
1605.000	718
1606.000	742
1607.000	723
1608.000	738
1609.000	729
1610.000	722
1611.000	732
1612.000	718
1613.000	734
1614.000	716
1615.000	702
1616.000	702
1617.000	687
1618.000	683
1619.000	667
1620.000	657
1621.000	653
1622.000	641
1623.000	626
1624.000	600
1625.000	601
1626.000	580
1627.000	562
1628.000	540
1629.000	533
1630.000	512
1631.000	520
1632.000	490
1633.000	473
1634.000	470
1635.000	448
1636.000	430
1637.000	412
1638.000	411
1639.000	401
1640.000	379
1641.000	371
1642.000	358
1643.000	347
1644.000	340
1645.000	337
1646.000	320
1647.000	312
1648.000	307
1649.000	295
1650.000	298
1651.000	286
1652.000	271
1653.000	273
1654.000	265
1655.000	261
1656.000	255
1657.000	249
1658.000	249
1659.000	234
1660.000	238
1661.000	230
1662.000	232
1663.000	232
1664.000	217
1665.000	224
1666.000	223
1667.000	213
1668.000	211
1669.000	217
1670.000	208
1671.000	211
1672.000	209
1673.000	214
1674.000	214
1675.000	214
1676.000	222
1677.000	218
1678.000	231
1679.000	232
1680.000	243
1681.000	255
1682.000	262
1683.000	276
1684.000	298
1685.000	317
1686.000	328
1687.000	347
1688.000	372
1689.000	383
1690.000	415
1691.000	425
1692.000	447
1693.000	480
1694.000	504
1695.000	510
1696.000	540
1697.000	553
1698.000	558
1699.000	575
1700.000	573
1701.000	588
1702.000	578
1703.000	577
1704.000	576
1705.000	567
1706.000	555
1707.000	532
1708.000	526
1709.000	487
1710.000	476
1711.000	440
1712.000	414
1713.000	405
1714.000	373
1715.000	356
1716.000	323
1717.000	311
1718.000	291
1719.000	272
1720.000	263
1721.000	243
1722.000	235
1723.000	230
1724.000	217
1725.000	209
1726.000	195
1727.000	193
1728.000	193
1729.000	177
1730.000	180
1731.000	180
1732.000	176
1733.000	179
1734.000	173
1735.000	172
1736.000	169
1737.000	170
1738.000	163
1739.000	166
1740.000	163
1741.000	168
1742.000	165
1743.000	173
1744.000	164
1745.000	164
1746.000	172
1747.000	176
1748.000	164
1749.000	165
1750.000	168
1751.000	169
1752.000	173
1753.000	179
1754.000	175
1755.000	172
1756.000	171
1757.000	177
1758.000	171
1759.000	177
1760.000	183
1761.000	182
1762.000	181
1763.000	188
1764.000	188
1765.000	185
1766.000	183
1767.000	206
1768.000	187
1769.000	197
1770.000	199
1771.000	196
1772.000	199
1773.000	196
1774.000	203
1775.000	203
1776.000	205
1777.000	203
1778.000	213
1779.000	213
1780.000	209
1781.000	206
1782.000	207
1783.000	218
1784.000	211
1785.000	225
1786.000	216
1787.000	223
1788.000	220
1789.000	225
1790.000	224
1791.000	229
1792.000	228
1793.000	219
1794.000	223
1795.000	228
1796.000	227
1797.000	225
1798.000	219
1799.000	221
1800.000	230
1801.000	229
1802.000	215
1803.000	213
1804.000	218
1805.000	210
1806.000	215
1807.000	208
1808.000	207
1809.000	210
1810.000	206
1811.000	198
1812.000	201
1813.000	206
1814.000	193
1815.000	200
1816.000	194
1817.000	184
1818.000	187
1819.000	183
1820.000	177
1821.000	183
1822.000	182
1823.000	168
1824.000	170
1825.000	165
1826.000	165
1827.000	158
1828.000	164
1829.000	152
1830.000	158
1831.000	146
1832.000	139
1833.000	148
1834.000	143
1835.000	138
1836.000	139
1837.000	135
1838.000	133
1839.000	129
1840.000	129
1841.000	131
1842.000	122
1843.000	124
1844.000	121
1845.000	122
1846.000	120
1847.000	120
1848.000	118
1849.000	111
1850.000	113
1851.000	115
1852.000	114
1853.000	107
1854.000	109
1855.000	114
1856.000	104
1857.000	106
1858.000	105
1859.000	104
1860.000	98
1861.000	96
1862.000	99
1863.000	95
1864.000	90
1865.000	98
1866.000	93
1867.000	91
1868.000	91
1869.000	91
1870.000	84
1871.000	90
1872.000	92
1873.000	86
1874.000	90
1875.000	88
1876.000	89
1877.000	90
1878.000	86
1879.000	83
1880.000	87
1881.000	92
1882.000	84
1883.000	86
1884.000	81
1885.000	86
1886.000	82
1887.000	84
1888.000	86
1889.000	88
1890.000	86
1891.000	83
1892.000	87
1893.000	95
1894.000	95
1895.000	97
1896.000	90
1897.000	100
1898.000	100
1899.000	106
1900.000	109
1901.000	111
1902.000	114
1903.000	116
1904.000	119
1905.000	126
1906.000	131
1907.000	129
1908.000	134
1909.000	135
1910.000	138
1911.000	136
1912.000	139
1913.000	133
1914.000	125
1915.000	136
1916.000	133
1917.000	125
1918.000	115
1919.000	116
1920.000	119
1921.000	109
1922.000	108
1923.000	99
1924.000	94
1925.000	98
1926.000	94
1927.000	93
1928.000	88
1929.000	87
1930.000	81
1931.000	80
1932.000	78
1933.000	80
1934.000	78
1935.000	80
1936.000	79
1937.000	79
1938.000	80
1939.000	73
1940.000	73
1941.000	75
1942.000	77
1943.000	78
1944.000	74
1945.000	76
1946.000	72
1947.000	71
1948.000	76
1949.000	72
1950.000	72
1951.000	68
1952.000	70
1953.000	71
1954.000	71
1955.000	70
1956.000	67
1957.000	66
1958.000	63
1959.000	64
1960.000	59
1961.000	65
1962.000	68
1963.000	60
1964.000	59
1965.000	65
1966.000	63
1967.000	62
1968.000	60
1969.000	61
1970.000	63
1971.000	57
1972.000	60
1973.000	58
1974.000	59
1975.000	57
1976.000	63
1977.000	56
1978.000	64
1979.000	59
1980.000	57
1981.000	63
1982.000	60
1983.000	56
1984.000	59
1985.000	55
1986.000	55
1987.000	53
1988.000	58
1989.000	61
1990.000	54
1991.000	58
1992.000	58
1993.000	58
1994.000	57
1995.000	56
1996.000	59
1997.000	57
1998.000	62
1999.000	58
2000.000	54
2001.000	60
2002.000	57
2003.000	58
2004.000	56
2005.000	60
2006.000	63
2007.000	56
2008.000	60
2009.000	54
2010.000	54
2011.000	58
2012.000	58
2013.000	57
2014.000	53
2015.000	56
2016.000	54
2017.000	54
2018.000	54
2019.000	57
2020.000	59
2021.000	58
2022.000	55
2023.000	54
2024.000	56
2025.000	53
2026.000	55
2027.000	53
2028.000	52
2029.000	54
2030.000	53
2031.000	56
2032.000	57
2033.000	54
2034.000	55
2035.000	57
2036.000	57
2037.000	58
2038.000	54
2039.000	56
2040.000	54
2041.000	55
2042.000	50
2043.000	50
2044.000	55
2045.000	54
2046.000	52
2047.000	54
2048.000	0
