Date:	17-Sep-20		Time:	11:47 PM		Version no:	0.00		Project name:	55		Sample name:	222		Section name:	section		Position	0.000000	mm	E0	0.000000	keV	E1	1.000000	keV/channel	sample surface	2.000000	cm	Tube anode:	Mo		Tube voltage:	30	kV	Tube current:	30	mA	gain	15		std. database			resultfile	result		matrix element	11		sample thickness	1.000000		air passage	0.560000	cm	comments	not in position		peaking_time	0.300000	m-sec	trigger_threshold	40.000000	V	mca_bin_width	2.000000	no:	number_mca_channels	2048.000000	no:	gap_time	2048.000000	m-sec	trigger_peaking_time	2048.000000	m-sec	GAINDAC	400		HIGHGAIN	400		TAURC	400		RCTAU	400		RCTAUFRAC	400		livetime	13.014294	seconds	runtime	15.000232	seconds	input_count_rate	80431.410221	cps	output_count_rate	69782.785033	cps	triggers	1173264	seconds	events_in_run	1020480	seconds	channel	content		1.000	0
2.000	0
3.000	0
4.000	0
5.000	0
6.000	0
7.000	0
8.000	0
9.000	0
10.000	0
11.000	0
12.000	0
13.000	0
14.000	0
15.000	0
16.000	0
17.000	0
18.000	0
19.000	0
20.000	0
21.000	0
22.000	0
23.000	0
24.000	0
25.000	0
26.000	0
27.000	0
28.000	0
29.000	0
30.000	0
31.000	0
32.000	0
33.000	0
34.000	1
35.000	0
36.000	0
37.000	0
38.000	0
39.000	0
40.000	0
41.000	1
42.000	0
43.000	0
44.000	0
45.000	0
46.000	0
47.000	1
48.000	0
49.000	0
50.000	1
51.000	1
52.000	2
53.000	3
54.000	4
55.000	5
56.000	6
57.000	9
58.000	11
59.000	18
60.000	22
61.000	24
62.000	30
63.000	30
64.000	28
65.000	26
66.000	26
67.000	27
68.000	27
69.000	24
70.000	23
71.000	24
72.000	22
73.000	26
74.000	25
75.000	26
76.000	25
77.000	24
78.000	23
79.000	25
80.000	24
81.000	23
82.000	27
83.000	22
84.000	26
85.000	24
86.000	24
87.000	25
88.000	24
89.000	22
90.000	23
91.000	23
92.000	22
93.000	20
94.000	20
95.000	22
96.000	23
97.000	20
98.000	21
99.000	20
100.000	19
101.000	20
102.000	19
103.000	19
104.000	20
105.000	20
106.000	20
107.000	17
108.000	17
109.000	21
110.000	20
111.000	19
112.000	17
113.000	18
114.000	19
115.000	18
116.000	18
117.000	21
118.000	17
119.000	19
120.000	18
121.000	19
122.000	17
123.000	18
124.000	15
125.000	17
126.000	16
127.000	16
128.000	17
129.000	15
130.000	16
131.000	15
132.000	15
133.000	17
134.000	13
135.000	16
136.000	15
137.000	14
138.000	16
139.000	17
140.000	19
141.000	19
142.000	20
143.000	21
144.000	28
145.000	28
146.000	27
147.000	26
148.000	25
149.000	22
150.000	22
151.000	19
152.000	19
153.000	20
154.000	18
155.000	18
156.000	15
157.000	16
158.000	16
159.000	16
160.000	16
161.000	14
162.000	16
163.000	17
164.000	20
165.000	25
166.000	31
167.000	36
168.000	49
169.000	51
170.000	59
171.000	56
172.000	56
173.000	52
174.000	45
175.000	39
176.000	33
177.000	32
178.000	27
179.000	28
180.000	28
181.000	35
182.000	43
183.000	54
184.000	63
185.000	89
186.000	111
187.000	151
188.000	185
189.000	220
190.000	243
191.000	240
192.000	228
193.000	210
194.000	186
195.000	147
196.000	116
197.000	77
198.000	53
199.000	40
200.000	28
201.000	23
202.000	21
203.000	17
204.000	16
205.000	16
206.000	17
207.000	16
208.000	15
209.000	15
210.000	16
211.000	16
212.000	17
213.000	19
214.000	21
215.000	20
216.000	26
217.000	27
218.000	34
219.000	34
220.000	42
221.000	41
222.000	43
223.000	44
224.000	44
225.000	43
226.000	39
227.000	35
228.000	30
229.000	24
230.000	22
231.000	19
232.000	16
233.000	18
234.000	15
235.000	13
236.000	14
237.000	13
238.000	16
239.000	14
240.000	14
241.000	14
242.000	14
243.000	13
244.000	13
245.000	15
246.000	20
247.000	19
248.000	28
249.000	30
250.000	46
251.000	61
252.000	74
253.000	91
254.000	115
255.000	129
256.000	142
257.000	146
258.000	140
259.000	134
260.000	115
261.000	96
262.000	77
263.000	60
264.000	50
265.000	34
266.000	24
267.000	25
268.000	22
269.000	23
270.000	20
271.000	24
272.000	27
273.000	25
274.000	29
275.000	30
276.000	29
277.000	32
278.000	27
279.000	30
280.000	27
281.000	31
282.000	31
283.000	38
284.000	44
285.000	52
286.000	60
287.000	69
288.000	75
289.000	80
290.000	76
291.000	78
292.000	72
293.000	67
294.000	61
295.000	49
296.000	37
297.000	38
298.000	28
299.000	26
300.000	24
301.000	23
302.000	23
303.000	24
304.000	22
305.000	26
306.000	24
307.000	23
308.000	28
309.000	30
310.000	33
311.000	36
312.000	38
313.000	41
314.000	47
315.000	58
316.000	72
317.000	89
318.000	113
319.000	146
320.000	166
321.000	211
322.000	243
323.000	257
324.000	276
325.000	270
326.000	266
327.000	243
328.000	211
329.000	170
330.000	139
331.000	110
332.000	86
333.000	66
334.000	48
335.000	42
336.000	39
337.000	35
338.000	40
339.000	39
340.000	45
341.000	51
342.000	65
343.000	79
344.000	100
345.000	145
346.000	204
347.000	298
348.000	464
349.000	739
350.000	1154
351.000	1785
352.000	2731
353.000	4010
354.000	5728
355.000	7826
356.000	10225
357.000	12738
358.000	15364
359.000	17530
360.000	19162
361.000	19941
362.000	19886
363.000	18738
364.000	17012
365.000	14646
366.000	12102
367.000	9468
368.000	7147
369.000	5142
370.000	3499
371.000	2311
372.000	1482
373.000	899
374.000	558
375.000	347
376.000	233
377.000	178
378.000	172
379.000	166
380.000	213
381.000	278
382.000	369
383.000	502
384.000	657
385.000	908
386.000	1197
387.000	1511
388.000	1850
389.000	2199
390.000	2535
391.000	2781
392.000	2951
393.000	2979
394.000	2913
395.000	2679
396.000	2381
397.000	2017
398.000	1669
399.000	1306
400.000	972
401.000	699
402.000	482
403.000	321
404.000	210
405.000	132
406.000	78
407.000	50
408.000	30
409.000	23
410.000	15
411.000	13
412.000	10
413.000	9
414.000	7
415.000	9
416.000	6
417.000	8
418.000	7
419.000	7
420.000	7
421.000	10
422.000	9
423.000	7
424.000	8
425.000	9
426.000	11
427.000	13
428.000	18
429.000	24
430.000	30
431.000	41
432.000	59
433.000	76
434.000	92
435.000	120
436.000	148
437.000	176
438.000	205
439.000	225
440.000	245
441.000	241
442.000	250
443.000	224
444.000	204
445.000	182
446.000	160
447.000	135
448.000	107
449.000	85
450.000	70
451.000	55
452.000	50
453.000	43
454.000	36
455.000	33
456.000	33
457.000	30
458.000	30
459.000	25
460.000	25
461.000	22
462.000	20
463.000	19
464.000	16
465.000	16
466.000	16
467.000	16
468.000	16
469.000	18
470.000	20
471.000	20
472.000	22
473.000	24
474.000	28
475.000	28
476.000	34
477.000	38
478.000	44
479.000	49
480.000	52
481.000	55
482.000	56
483.000	59
484.000	55
485.000	51
486.000	50
487.000	48
488.000	39
489.000	37
490.000	30
491.000	21
492.000	20
493.000	20
494.000	18
495.000	17
496.000	18
497.000	17
498.000	13
499.000	16
500.000	16
501.000	18
502.000	16
503.000	15
504.000	16
505.000	17
506.000	20
507.000	18
508.000	18
509.000	19
510.000	18
511.000	21
512.000	21
513.000	21
514.000	20
515.000	24
516.000	24
517.000	23
518.000	27
519.000	28
520.000	28
521.000	31
522.000	32
523.000	35
524.000	35
525.000	42
526.000	42
527.000	43
528.000	43
529.000	41
530.000	47
531.000	41
532.000	42
533.000	41
534.000	35
535.000	33
536.000	30
537.000	30
538.000	27
539.000	25
540.000	23
541.000	24
542.000	22
543.000	20
544.000	23
545.000	21
546.000	21
547.000	22
548.000	21
549.000	20
550.000	21
551.000	22
552.000	25
553.000	24
554.000	24
555.000	25
556.000	28
557.000	25
558.000	28
559.000	26
560.000	33
561.000	36
562.000	34
563.000	42
564.000	44
565.000	54
566.000	58
567.000	70
568.000	90
569.000	102
570.000	116
571.000	134
572.000	151
573.000	176
574.000	183
575.000	194
576.000	188
577.000	182
578.000	178
579.000	174
580.000	160
581.000	150
582.000	121
583.000	105
584.000	87
585.000	78
586.000	68
587.000	54
588.000	46
589.000	42
590.000	35
591.000	34
592.000	31
593.000	32
594.000	28
595.000	30
596.000	30
597.000	31
598.000	33
599.000	35
600.000	34
601.000	39
602.000	38
603.000	42
604.000	51
605.000	59
606.000	72
607.000	83
608.000	112
609.000	152
610.000	218
611.000	306
612.000	434
613.000	602
614.000	835
615.000	1116
616.000	1468
617.000	1901
618.000	2389
619.000	2924
620.000	3459
621.000	3998
622.000	4502
623.000	4895
624.000	5170
625.000	5266
626.000	5251
627.000	5057
628.000	4758
629.000	4264
630.000	3788
631.000	3283
632.000	2703
633.000	2206
634.000	1765
635.000	1334
636.000	1023
637.000	754
638.000	532
639.000	389
640.000	273
641.000	204
642.000	144
643.000	115
644.000	96
645.000	81
646.000	69
647.000	55
648.000	59
649.000	61
650.000	57
651.000	58
652.000	56
653.000	59
654.000	49
655.000	55
656.000	55
657.000	61
658.000	54
659.000	58
660.000	58
661.000	62
662.000	62
663.000	63
664.000	64
665.000	65
666.000	65
667.000	68
668.000	70
669.000	80
670.000	84
671.000	85
672.000	93
673.000	103
674.000	120
675.000	137
676.000	163
677.000	196
678.000	237
679.000	283
680.000	333
681.000	409
682.000	490
683.000	556
684.000	648
685.000	731
686.000	787
687.000	834
688.000	878
689.000	892
690.000	875
691.000	831
692.000	809
693.000	727
694.000	664
695.000	574
696.000	495
697.000	426
698.000	341
699.000	280
700.000	233
701.000	185
702.000	148
703.000	119
704.000	97
705.000	85
706.000	74
707.000	71
708.000	60
709.000	58
710.000	60
711.000	58
712.000	58
713.000	58
714.000	63
715.000	64
716.000	66
717.000	72
718.000	80
719.000	87
720.000	83
721.000	83
722.000	83
723.000	88
724.000	89
725.000	85
726.000	91
727.000	94
728.000	92
729.000	92
730.000	92
731.000	93
732.000	88
733.000	90
734.000	82
735.000	81
736.000	79
737.000	77
738.000	77
739.000	76
740.000	66
741.000	65
742.000	72
743.000	76
744.000	68
745.000	68
746.000	69
747.000	66
748.000	71
749.000	65
750.000	61
751.000	71
752.000	68
753.000	66
754.000	70
755.000	70
756.000	68
757.000	71
758.000	72
759.000	64
760.000	68
761.000	69
762.000	70
763.000	69
764.000	71
765.000	72
766.000	75
767.000	74
768.000	75
769.000	76
770.000	76
771.000	81
772.000	79
773.000	83
774.000	82
775.000	89
776.000	96
777.000	96
778.000	95
779.000	99
780.000	100
781.000	113
782.000	118
783.000	113
784.000	120
785.000	125
786.000	126
787.000	129
788.000	124
789.000	133
790.000	130
791.000	131
792.000	141
793.000	140
794.000	134
795.000	136
796.000	135
797.000	140
798.000	143
799.000	136
800.000	143
801.000	140
802.000	139
803.000	142
804.000	145
805.000	153
806.000	157
807.000	151
808.000	168
809.000	177
810.000	197
811.000	200
812.000	215
813.000	232
814.000	240
815.000	268
816.000	268
817.000	280
818.000	292
819.000	292
820.000	288
821.000	274
822.000	282
823.000	273
824.000	257
825.000	244
826.000	216
827.000	200
828.000	188
829.000	180
830.000	169
831.000	159
832.000	146
833.000	137
834.000	134
835.000	129
836.000	130
837.000	128
838.000	124
839.000	127
840.000	126
841.000	129
842.000	128
843.000	129
844.000	121
845.000	126
846.000	123
847.000	124
848.000	124
849.000	118
850.000	125
851.000	123
852.000	120
853.000	116
854.000	116
855.000	117
856.000	111
857.000	111
858.000	114
859.000	110
860.000	109
861.000	112
862.000	115
863.000	116
864.000	109
865.000	119
866.000	116
867.000	117
868.000	117
869.000	111
870.000	115
871.000	115
872.000	112
873.000	116
874.000	113
875.000	116
876.000	114
877.000	111
878.000	115
879.000	112
880.000	118
881.000	106
882.000	110
883.000	115
884.000	110
885.000	116
886.000	118
887.000	116
888.000	114
889.000	119
890.000	115
891.000	116
892.000	122
893.000	124
894.000	121
895.000	127
896.000	131
897.000	133
898.000	130
899.000	131
900.000	132
901.000	146
902.000	142
903.000	145
904.000	156
905.000	143
906.000	156
907.000	148
908.000	155
909.000	157
910.000	156
911.000	165
912.000	157
913.000	156
914.000	162
915.000	163
916.000	169
917.000	164
918.000	162
919.000	174
920.000	174
921.000	168
922.000	171
923.000	181
924.000	175
925.000	179
926.000	182
927.000	180
928.000	179
929.000	185
930.000	187
931.000	198
932.000	202
933.000	197
934.000	212
935.000	209
936.000	222
937.000	229
938.000	237
939.000	235
940.000	242
941.000	252
942.000	250
943.000	253
944.000	263
945.000	256
946.000	256
947.000	249
948.000	232
949.000	223
950.000	228
951.000	215
952.000	204
953.000	201
954.000	193
955.000	189
956.000	189
957.000	179
958.000	173
959.000	167
960.000	173
961.000	167
962.000	176
963.000	168
964.000	174
965.000	175
966.000	175
967.000	174
968.000	180
969.000	181
970.000	182
971.000	180
972.000	181
973.000	186
974.000	180
975.000	177
976.000	178
977.000	162
978.000	172
979.000	163
980.000	161
981.000	167
982.000	169
983.000	161
984.000	151
985.000	149
986.000	149
987.000	141
988.000	148
989.000	140
990.000	135
991.000	142
992.000	138
993.000	142
994.000	127
995.000	136
996.000	136
997.000	140
998.000	134
999.000	132
1000.000	136
1001.000	134
1002.000	133
1003.000	129
1004.000	131
1005.000	136
1006.000	133
1007.000	135
1008.000	129
1009.000	129
1010.000	126
1011.000	134
1012.000	128
1013.000	140
1014.000	131
1015.000	136
1016.000	130
1017.000	135
1018.000	134
1019.000	130
1020.000	133
1021.000	137
1022.000	136
1023.000	145
1024.000	135
1025.000	133
1026.000	140
1027.000	142
1028.000	142
1029.000	132
1030.000	138
1031.000	143
1032.000	144
1033.000	146
1034.000	141
1035.000	146
1036.000	143
1037.000	144
1038.000	140
1039.000	141
1040.000	140
1041.000	142
1042.000	145
1043.000	138
1044.000	149
1045.000	149
1046.000	140
1047.000	147
1048.000	149
1049.000	153
1050.000	148
1051.000	149
1052.000	153
1053.000	154
1054.000	153
1055.000	156
1056.000	147
1057.000	150
1058.000	157
1059.000	150
1060.000	156
1061.000	154
1062.000	153
1063.000	153
1064.000	155
1065.000	149
1066.000	152
1067.000	158
1068.000	157
1069.000	158
1070.000	151
1071.000	159
1072.000	154
1073.000	160
1074.000	155
1075.000	162
1076.000	156
1077.000	153
1078.000	152
1079.000	157
1080.000	148
1081.000	152
1082.000	156
1083.000	156
1084.000	153
1085.000	156
1086.000	152
1087.000	156
1088.000	160
1089.000	160
1090.000	162
1091.000	157
1092.000	160
1093.000	163
1094.000	160
1095.000	166
1096.000	163
1097.000	168
1098.000	170
1099.000	178
1100.000	173
1101.000	170
1102.000	168
1103.000	175
1104.000	161
1105.000	164
1106.000	168
1107.000	170
1108.000	161
1109.000	158
1110.000	166
1111.000	166
1112.000	158
1113.000	156
1114.000	156
1115.000	153
1116.000	159
1117.000	160
1118.000	153
1119.000	157
1120.000	156
1121.000	152
1122.000	153
1123.000	153
1124.000	158
1125.000	159
1126.000	160
1127.000	157
1128.000	156
1129.000	155
1130.000	155
1131.000	155
1132.000	157
1133.000	165
1134.000	161
1135.000	149
1136.000	160
1137.000	159
1138.000	163
1139.000	161
1140.000	160
1141.000	166
1142.000	167
1143.000	165
1144.000	169
1145.000	153
1146.000	156
1147.000	164
1148.000	166
1149.000	164
1150.000	170
1151.000	169
1152.000	165
1153.000	167
1154.000	177
1155.000	163
1156.000	174
1157.000	169
1158.000	172
1159.000	178
1160.000	175
1161.000	176
1162.000	178
1163.000	178
1164.000	185
1165.000	179
1166.000	172
1167.000	180
1168.000	174
1169.000	174
1170.000	171
1171.000	176
1172.000	163
1173.000	160
1174.000	168
1175.000	162
1176.000	160
1177.000	158
1178.000	154
1179.000	159
1180.000	156
1181.000	154
1182.000	154
1183.000	158
1184.000	158
1185.000	159
1186.000	159
1187.000	153
1188.000	157
1189.000	157
1190.000	154
1191.000	160
1192.000	151
1193.000	154
1194.000	155
1195.000	159
1196.000	153
1197.000	153
1198.000	159
1199.000	156
1200.000	166
1201.000	157
1202.000	157
1203.000	162
1204.000	156
1205.000	160
1206.000	162
1207.000	154
1208.000	155
1209.000	151
1210.000	163
1211.000	153
1212.000	155
1213.000	164
1214.000	159
1215.000	161
1216.000	159
1217.000	165
1218.000	161
1219.000	170
1220.000	163
1221.000	162
1222.000	163
1223.000	160
1224.000	166
1225.000	160
1226.000	160
1227.000	169
1228.000	163
1229.000	165
1230.000	164
1231.000	168
1232.000	171
1233.000	168
1234.000	172
1235.000	160
1236.000	167
1237.000	158
1238.000	167
1239.000	169
1240.000	162
1241.000	166
1242.000	163
1243.000	164
1244.000	168
1245.000	163
1246.000	156
1247.000	164
1248.000	160
1249.000	166
1250.000	164
1251.000	163
1252.000	167
1253.000	168
1254.000	163
1255.000	163
1256.000	159
1257.000	172
1258.000	162
1259.000	168
1260.000	162
1261.000	165
1262.000	164
1263.000	165
1264.000	171
1265.000	163
1266.000	153
1267.000	168
1268.000	167
1269.000	159
1270.000	166
1271.000	171
1272.000	160
1273.000	164
1274.000	167
1275.000	167
1276.000	162
1277.000	162
1278.000	172
1279.000	169
1280.000	171
1281.000	162
1282.000	166
1283.000	160
1284.000	164
1285.000	167
1286.000	164
1287.000	167
1288.000	170
1289.000	165
1290.000	169
1291.000	169
1292.000	171
1293.000	169
1294.000	174
1295.000	168
1296.000	171
1297.000	179
1298.000	170
1299.000	179
1300.000	175
1301.000	177
1302.000	182
1303.000	184
1304.000	187
1305.000	182
1306.000	175
1307.000	184
1308.000	175
1309.000	169
1310.000	174
1311.000	175
1312.000	175
1313.000	170
1314.000	167
1315.000	174
1316.000	170
1317.000	168
1318.000	173
1319.000	167
1320.000	173
1321.000	176
1322.000	173
1323.000	174
1324.000	168
1325.000	169
1326.000	169
1327.000	165
1328.000	169
1329.000	174
1330.000	176
1331.000	166
1332.000	171
1333.000	174
1334.000	175
1335.000	174
1336.000	168
1337.000	169
1338.000	176
1339.000	167
1340.000	175
1341.000	171
1342.000	165
1343.000	168
1344.000	168
1345.000	172
1346.000	173
1347.000	175
1348.000	165
1349.000	175
1350.000	176
1351.000	169
1352.000	174
1353.000	182
1354.000	187
1355.000	185
1356.000	196
1357.000	200
1358.000	213
1359.000	225
1360.000	238
1361.000	258
1362.000	271
1363.000	298
1364.000	324
1365.000	345
1366.000	389
1367.000	431
1368.000	488
1369.000	521
1370.000	565
1371.000	618
1372.000	670
1373.000	702
1374.000	758
1375.000	801
1376.000	839
1377.000	866
1378.000	882
1379.000	905
1380.000	898
1381.000	888
1382.000	866
1383.000	837
1384.000	815
1385.000	772
1386.000	743
1387.000	673
1388.000	634
1389.000	571
1390.000	531
1391.000	470
1392.000	426
1393.000	401
1394.000	360
1395.000	311
1396.000	298
1397.000	268
1398.000	249
1399.000	228
1400.000	215
1401.000	202
1402.000	192
1403.000	183
1404.000	188
1405.000	175
1406.000	175
1407.000	168
1408.000	170
1409.000	173
1410.000	163
1411.000	172
1412.000	164
1413.000	169
1414.000	164
1415.000	166
1416.000	164
1417.000	170
1418.000	168
1419.000	166
1420.000	168
1421.000	162
1422.000	167
1423.000	164
1424.000	165
1425.000	163
1426.000	166
1427.000	165
1428.000	165
1429.000	167
1430.000	169
1431.000	174
1432.000	164
1433.000	170
1434.000	173
1435.000	166
1436.000	163
1437.000	162
1438.000	164
1439.000	173
1440.000	172
1441.000	169
1442.000	170
1443.000	171
1444.000	177
1445.000	171
1446.000	172
1447.000	180
1448.000	177
1449.000	172
1450.000	170
1451.000	179
1452.000	177
1453.000	184
1454.000	174
1455.000	180
1456.000	178
1457.000	179
1458.000	179
1459.000	179
1460.000	175
1461.000	184
1462.000	181
1463.000	182
1464.000	185
1465.000	175
1466.000	174
1467.000	168
1468.000	173
1469.000	174
1470.000	174
1471.000	165
1472.000	172
1473.000	167
1474.000	171
1475.000	171
1476.000	169
1477.000	177
1478.000	178
1479.000	168
1480.000	169
1481.000	167
1482.000	176
1483.000	172
1484.000	179
1485.000	173
1486.000	170
1487.000	173
1488.000	175
1489.000	175
1490.000	176
1491.000	169
1492.000	177
1493.000	176
1494.000	181
1495.000	169
1496.000	170
1497.000	171
1498.000	173
1499.000	175
1500.000	172
1501.000	178
1502.000	169
1503.000	176
1504.000	178
1505.000	177
1506.000	173
1507.000	177
1508.000	175
1509.000	176
1510.000	177
1511.000	183
1512.000	182
1513.000	184
1514.000	181
1515.000	179
1516.000	187
1517.000	177
1518.000	184
1519.000	187
1520.000	192
1521.000	195
1522.000	199
1523.000	200
1524.000	201
1525.000	201
1526.000	212
1527.000	202
1528.000	215
1529.000	231
1530.000	229
1531.000	240
1532.000	243
1533.000	257
1534.000	271
1535.000	286
1536.000	280
1537.000	301
1538.000	312
1539.000	313
1540.000	310
1541.000	318
1542.000	331
1543.000	328
1544.000	338
1545.000	328
1546.000	322
1547.000	327
1548.000	325
1549.000	316
1550.000	308
1551.000	303
1552.000	299
1553.000	289
1554.000	285
1555.000	275
1556.000	283
1557.000	272
1558.000	268
1559.000	254
1560.000	264
1561.000	258
1562.000	267
1563.000	268
1564.000	262
1565.000	274
1566.000	277
1567.000	286
1568.000	278
1569.000	281
1570.000	292
1571.000	299
1572.000	300
1573.000	312
1574.000	326
1575.000	333
1576.000	339
1577.000	342
1578.000	346
1579.000	357
1580.000	355
1581.000	368
1582.000	378
1583.000	393
1584.000	400
1585.000	407
1586.000	417
1587.000	439
1588.000	437
1589.000	451
1590.000	459
1591.000	478
1592.000	491
1593.000	495
1594.000	504
1595.000	527
1596.000	531
1597.000	532
1598.000	543
1599.000	554
1600.000	561
1601.000	564
1602.000	574
1603.000	573
1604.000	584
1605.000	585
1606.000	586
1607.000	593
1608.000	589
1609.000	582
1610.000	587
1611.000	584
1612.000	587
1613.000	577
1614.000	583
1615.000	559
1616.000	544
1617.000	553
1618.000	552
1619.000	546
1620.000	521
1621.000	525
1622.000	513
1623.000	499
1624.000	488
1625.000	478
1626.000	462
1627.000	459
1628.000	453
1629.000	436
1630.000	431
1631.000	411
1632.000	406
1633.000	389
1634.000	370
1635.000	362
1636.000	358
1637.000	341
1638.000	345
1639.000	331
1640.000	321
1641.000	310
1642.000	305
1643.000	293
1644.000	289
1645.000	280
1646.000	265
1647.000	268
1648.000	253
1649.000	243
1650.000	244
1651.000	231
1652.000	233
1653.000	220
1654.000	220
1655.000	220
1656.000	212
1657.000	207
1658.000	197
1659.000	201
1660.000	196
1661.000	193
1662.000	194
1663.000	187
1664.000	181
1665.000	182
1666.000	181
1667.000	180
1668.000	182
1669.000	181
1670.000	173
1671.000	178
1672.000	167
1673.000	175
1674.000	178
1675.000	176
1676.000	184
1677.000	191
1678.000	195
1679.000	204
1680.000	211
1681.000	215
1682.000	225
1683.000	251
1684.000	258
1685.000	269
1686.000	296
1687.000	311
1688.000	332
1689.000	352
1690.000	376
1691.000	400
1692.000	415
1693.000	434
1694.000	448
1695.000	474
1696.000	490
1697.000	507
1698.000	521
1699.000	529
1700.000	530
1701.000	539
1702.000	547
1703.000	523
1704.000	516
1705.000	517
1706.000	515
1707.000	496
1708.000	477
1709.000	435
1710.000	430
1711.000	407
1712.000	384
1713.000	344
1714.000	326
1715.000	304
1716.000	285
1717.000	262
1718.000	250
1719.000	234
1720.000	202
1721.000	202
1722.000	182
1723.000	174
1724.000	168
1725.000	159
1726.000	153
1727.000	151
1728.000	148
1729.000	152
1730.000	143
1731.000	138
1732.000	144
1733.000	136
1734.000	141
1735.000	131
1736.000	136
1737.000	140
1738.000	137
1739.000	132
1740.000	137
1741.000	135
1742.000	134
1743.000	139
1744.000	137
1745.000	134
1746.000	140
1747.000	140
1748.000	144
1749.000	138
1750.000	140
1751.000	141
1752.000	147
1753.000	142
1754.000	142
1755.000	139
1756.000	146
1757.000	144
1758.000	140
1759.000	147
1760.000	147
1761.000	147
1762.000	150
1763.000	152
1764.000	155
1765.000	151
1766.000	158
1767.000	154
1768.000	163
1769.000	155
1770.000	159
1771.000	167
1772.000	161
1773.000	172
1774.000	169
1775.000	174
1776.000	175
1777.000	177
1778.000	178
1779.000	181
1780.000	182
1781.000	177
1782.000	175
1783.000	182
1784.000	181
1785.000	181
1786.000	186
1787.000	181
1788.000	186
1789.000	187
1790.000	185
1791.000	184
1792.000	183
1793.000	186
1794.000	195
1795.000	183
1796.000	191
1797.000	184
1798.000	188
1799.000	192
1800.000	183
1801.000	184
1802.000	189
1803.000	183
1804.000	177
1805.000	179
1806.000	179
1807.000	174
1808.000	179
1809.000	173
1810.000	167
1811.000	175
1812.000	166
1813.000	162
1814.000	164
1815.000	159
1816.000	159
1817.000	157
1818.000	154
1819.000	148
1820.000	141
1821.000	151
1822.000	148
1823.000	144
1824.000	147
1825.000	139
1826.000	134
1827.000	135
1828.000	135
1829.000	133
1830.000	128
1831.000	131
1832.000	128
1833.000	126
1834.000	117
1835.000	118
1836.000	114
1837.000	110
1838.000	106
1839.000	110
1840.000	114
1841.000	107
1842.000	107
1843.000	105
1844.000	103
1845.000	102
1846.000	101
1847.000	98
1848.000	95
1849.000	102
1850.000	98
1851.000	93
1852.000	92
1853.000	91
1854.000	92
1855.000	91
1856.000	91
1857.000	86
1858.000	88
1859.000	81
1860.000	81
1861.000	85
1862.000	87
1863.000	83
1864.000	84
1865.000	84
1866.000	80
1867.000	82
1868.000	80
1869.000	83
1870.000	75
1871.000	72
1872.000	75
1873.000	78
1874.000	79
1875.000	74
1876.000	74
1877.000	70
1878.000	72
1879.000	72
1880.000	77
1881.000	69
1882.000	73
1883.000	76
1884.000	72
1885.000	75
1886.000	74
1887.000	74
1888.000	77
1889.000	71
1890.000	73
1891.000	73
1892.000	80
1893.000	79
1894.000	86
1895.000	86
1896.000	83
1897.000	87
1898.000	93
1899.000	94
1900.000	93
1901.000	98
1902.000	92
1903.000	99
1904.000	104
1905.000	107
1906.000	111
1907.000	116
1908.000	114
1909.000	123
1910.000	117
1911.000	122
1912.000	127
1913.000	120
1914.000	115
1915.000	119
1916.000	119
1917.000	111
1918.000	106
1919.000	103
1920.000	101
1921.000	101
1922.000	99
1923.000	90
1924.000	84
1925.000	84
1926.000	82
1927.000	77
1928.000	72
1929.000	75
1930.000	70
1931.000	69
1932.000	71
1933.000	65
1934.000	70
1935.000	65
1936.000	66
1937.000	67
1938.000	69
1939.000	68
1940.000	62
1941.000	66
1942.000	66
1943.000	66
1944.000	66
1945.000	66
1946.000	66
1947.000	67
1948.000	69
1949.000	61
1950.000	65
1951.000	67
1952.000	59
1953.000	57
1954.000	57
1955.000	58
1956.000	58
1957.000	57
1958.000	57
1959.000	53
1960.000	51
1961.000	57
1962.000	54
1963.000	52
1964.000	53
1965.000	54
1966.000	56
1967.000	55
1968.000	48
1969.000	51
1970.000	50
1971.000	51
1972.000	52
1973.000	47
1974.000	54
1975.000	49
1976.000	51
1977.000	48
1978.000	47
1979.000	49
1980.000	52
1981.000	52
1982.000	49
1983.000	53
1984.000	50
1985.000	51
1986.000	49
1987.000	52
1988.000	49
1989.000	46
1990.000	46
1991.000	49
1992.000	46
1993.000	48
1994.000	52
1995.000	48
1996.000	50
1997.000	44
1998.000	44
1999.000	47
2000.000	47
2001.000	51
2002.000	45
2003.000	48
2004.000	47
2005.000	44
2006.000	46
2007.000	46
2008.000	44
2009.000	45
2010.000	46
2011.000	48
2012.000	47
2013.000	49
2014.000	46
2015.000	44
2016.000	45
2017.000	50
2018.000	47
2019.000	46
2020.000	47
2021.000	45
2022.000	47
2023.000	49
2024.000	48
2025.000	47
2026.000	46
2027.000	45
2028.000	46
2029.000	44
2030.000	48
2031.000	43
2032.000	41
2033.000	45
2034.000	45
2035.000	45
2036.000	45
2037.000	45
2038.000	44
2039.000	45
2040.000	48
2041.000	45
2042.000	43
2043.000	44
2044.000	47
2045.000	47
2046.000	48
2047.000	49
2048.000	0
