Date:	23-Sep-20		Time:	11:32 PM		Version no:	0.00		Project name:	55		Sample name:	222		Section name:	section		Position	0.000000	mm	E0	0.000000	keV	E1	1.000000	keV/channel	sample surface	2.000000	cm	Tube anode:	Mo		Tube voltage:	30	kV	Tube current:	30	mA	gain	15		std. database			resultfile	result		matrix element	11		sample thickness	1.000000		air passage	0.560000	cm	comments	not in position		peaking_time	0.300000	m-sec	trigger_threshold	40.000000	V	mca_bin_width	2.000000	no:	number_mca_channels	2048.000000	no:	gap_time	2048.000000	m-sec	trigger_peaking_time	2048.000000	m-sec	GAINDAC	400		HIGHGAIN	400		TAURC	400		RCTAU	400		RCTAUFRAC	400		livetime	13.334824	seconds	runtime	15.000351	seconds	input_count_rate	47769.585089	cps	output_count_rate	42465.604889	cps	triggers	704307	seconds	events_in_run	618783	seconds	channel	content		1.000	0
2.000	0
3.000	0
4.000	0
5.000	0
6.000	0
7.000	0
8.000	0
9.000	0
10.000	0
11.000	0
12.000	0
13.000	0
14.000	0
15.000	0
16.000	0
17.000	0
18.000	0
19.000	0
20.000	0
21.000	0
22.000	0
23.000	0
24.000	0
25.000	0
26.000	0
27.000	0
28.000	0
29.000	0
30.000	0
31.000	0
32.000	1
33.000	0
34.000	0
35.000	0
36.000	0
37.000	1
38.000	0
39.000	0
40.000	0
41.000	0
42.000	1
43.000	0
44.000	1
45.000	0
46.000	0
47.000	0
48.000	1
49.000	1
50.000	1
51.000	1
52.000	1
53.000	2
54.000	4
55.000	3
56.000	7
57.000	9
58.000	12
59.000	18
60.000	24
61.000	28
62.000	29
63.000	30
64.000	32
65.000	30
66.000	30
67.000	28
68.000	26
69.000	27
70.000	28
71.000	28
72.000	27
73.000	24
74.000	26
75.000	26
76.000	26
77.000	23
78.000	26
79.000	25
80.000	24
81.000	26
82.000	26
83.000	24
84.000	25
85.000	26
86.000	28
87.000	26
88.000	26
89.000	24
90.000	22
91.000	21
92.000	22
93.000	21
94.000	20
95.000	22
96.000	20
97.000	22
98.000	20
99.000	24
100.000	19
101.000	19
102.000	23
103.000	23
104.000	21
105.000	22
106.000	17
107.000	19
108.000	20
109.000	19
110.000	19
111.000	20
112.000	20
113.000	18
114.000	21
115.000	19
116.000	19
117.000	19
118.000	19
119.000	18
120.000	20
121.000	18
122.000	18
123.000	17
124.000	18
125.000	15
126.000	17
127.000	17
128.000	17
129.000	16
130.000	18
131.000	15
132.000	17
133.000	17
134.000	17
135.000	15
136.000	16
137.000	15
138.000	16
139.000	16
140.000	20
141.000	20
142.000	19
143.000	22
144.000	23
145.000	23
146.000	23
147.000	24
148.000	23
149.000	21
150.000	21
151.000	18
152.000	18
153.000	15
154.000	17
155.000	13
156.000	16
157.000	14
158.000	12
159.000	14
160.000	15
161.000	14
162.000	15
163.000	16
164.000	17
165.000	21
166.000	22
167.000	26
168.000	30
169.000	34
170.000	34
171.000	33
172.000	34
173.000	33
174.000	32
175.000	26
176.000	26
177.000	24
178.000	28
179.000	29
180.000	32
181.000	41
182.000	48
183.000	61
184.000	81
185.000	110
186.000	152
187.000	184
188.000	225
189.000	271
190.000	306
191.000	307
192.000	290
193.000	260
194.000	215
195.000	182
196.000	135
197.000	92
198.000	71
199.000	49
200.000	34
201.000	24
202.000	22
203.000	18
204.000	19
205.000	18
206.000	19
207.000	18
208.000	18
209.000	20
210.000	17
211.000	21
212.000	18
213.000	20
214.000	23
215.000	25
216.000	29
217.000	32
218.000	35
219.000	45
220.000	51
221.000	58
222.000	60
223.000	58
224.000	60
225.000	55
226.000	51
227.000	40
228.000	38
229.000	34
230.000	29
231.000	26
232.000	20
233.000	19
234.000	19
235.000	15
236.000	16
237.000	14
238.000	17
239.000	14
240.000	15
241.000	18
242.000	16
243.000	16
244.000	16
245.000	21
246.000	23
247.000	26
248.000	33
249.000	42
250.000	58
251.000	83
252.000	107
253.000	136
254.000	161
255.000	187
256.000	202
257.000	201
258.000	208
259.000	190
260.000	165
261.000	135
262.000	105
263.000	83
264.000	62
265.000	43
266.000	35
267.000	29
268.000	26
269.000	24
270.000	26
271.000	26
272.000	33
273.000	34
274.000	35
275.000	36
276.000	36
277.000	41
278.000	37
279.000	35
280.000	33
281.000	37
282.000	36
283.000	40
284.000	47
285.000	56
286.000	64
287.000	72
288.000	78
289.000	85
290.000	88
291.000	80
292.000	74
293.000	73
294.000	61
295.000	54
296.000	47
297.000	39
298.000	30
299.000	30
300.000	28
301.000	25
302.000	26
303.000	24
304.000	26
305.000	27
306.000	28
307.000	30
308.000	33
309.000	33
310.000	37
311.000	39
312.000	44
313.000	45
314.000	49
315.000	53
316.000	57
317.000	71
318.000	79
319.000	92
320.000	112
321.000	123
322.000	146
323.000	159
324.000	160
325.000	159
326.000	149
327.000	135
328.000	130
329.000	107
330.000	88
331.000	73
332.000	59
333.000	45
334.000	38
335.000	38
336.000	40
337.000	34
338.000	40
339.000	43
340.000	48
341.000	62
342.000	72
343.000	92
344.000	116
345.000	174
346.000	242
347.000	380
348.000	571
349.000	915
350.000	1434
351.000	2274
352.000	3463
353.000	5104
354.000	7328
355.000	9923
356.000	13083
357.000	16412
358.000	19611
359.000	22403
360.000	24483
361.000	25404
362.000	25269
363.000	23879
364.000	21630
365.000	18574
366.000	15355
367.000	12058
368.000	9075
369.000	6458
370.000	4456
371.000	2971
372.000	1866
373.000	1153
374.000	710
375.000	443
376.000	298
377.000	233
378.000	215
379.000	226
380.000	263
381.000	352
382.000	462
383.000	640
384.000	863
385.000	1160
386.000	1504
387.000	1928
388.000	2354
389.000	2828
390.000	3229
391.000	3547
392.000	3754
393.000	3798
394.000	3701
395.000	3421
396.000	3066
397.000	2589
398.000	2115
399.000	1660
400.000	1252
401.000	882
402.000	606
403.000	419
404.000	265
405.000	167
406.000	95
407.000	57
408.000	40
409.000	24
410.000	14
411.000	10
412.000	11
413.000	10
414.000	8
415.000	7
416.000	9
417.000	7
418.000	6
419.000	8
420.000	7
421.000	8
422.000	8
423.000	6
424.000	9
425.000	8
426.000	10
427.000	12
428.000	11
429.000	13
430.000	15
431.000	23
432.000	27
433.000	33
434.000	39
435.000	50
436.000	59
437.000	71
438.000	78
439.000	85
440.000	95
441.000	99
442.000	92
443.000	93
444.000	85
445.000	74
446.000	62
447.000	51
448.000	42
449.000	35
450.000	33
451.000	29
452.000	22
453.000	19
454.000	21
455.000	20
456.000	21
457.000	17
458.000	18
459.000	15
460.000	15
461.000	13
462.000	14
463.000	12
464.000	12
465.000	13
466.000	14
467.000	12
468.000	12
469.000	12
470.000	12
471.000	15
472.000	15
473.000	15
474.000	17
475.000	17
476.000	20
477.000	20
478.000	21
479.000	23
480.000	27
481.000	24
482.000	30
483.000	28
484.000	29
485.000	24
486.000	23
487.000	24
488.000	18
489.000	18
490.000	19
491.000	16
492.000	15
493.000	14
494.000	14
495.000	13
496.000	14
497.000	15
498.000	13
499.000	14
500.000	13
501.000	13
502.000	13
503.000	13
504.000	15
505.000	16
506.000	15
507.000	14
508.000	15
509.000	18
510.000	19
511.000	17
512.000	19
513.000	19
514.000	19
515.000	23
516.000	22
517.000	24
518.000	22
519.000	23
520.000	25
521.000	27
522.000	27
523.000	31
524.000	35
525.000	31
526.000	37
527.000	36
528.000	39
529.000	37
530.000	39
531.000	37
532.000	34
533.000	34
534.000	33
535.000	28
536.000	26
537.000	25
538.000	24
539.000	22
540.000	22
541.000	20
542.000	21
543.000	20
544.000	21
545.000	17
546.000	18
547.000	21
548.000	23
549.000	22
550.000	21
551.000	25
552.000	23
553.000	24
554.000	24
555.000	26
556.000	26
557.000	25
558.000	27
559.000	31
560.000	29
561.000	32
562.000	32
563.000	39
564.000	40
565.000	43
566.000	51
567.000	56
568.000	62
569.000	72
570.000	82
571.000	93
572.000	101
573.000	110
574.000	118
575.000	119
576.000	122
577.000	125
578.000	115
579.000	110
580.000	97
581.000	90
582.000	89
583.000	67
584.000	61
585.000	54
586.000	46
587.000	38
588.000	34
589.000	30
590.000	29
591.000	26
592.000	26
593.000	23
594.000	25
595.000	26
596.000	24
597.000	26
598.000	26
599.000	24
600.000	29
601.000	25
602.000	28
603.000	30
604.000	32
605.000	37
606.000	39
607.000	48
608.000	56
609.000	72
610.000	94
611.000	127
612.000	170
613.000	237
614.000	317
615.000	424
616.000	552
617.000	704
618.000	889
619.000	1062
620.000	1267
621.000	1468
622.000	1633
623.000	1753
624.000	1879
625.000	1900
626.000	1931
627.000	1825
628.000	1724
629.000	1562
630.000	1396
631.000	1208
632.000	1008
633.000	837
634.000	644
635.000	524
636.000	399
637.000	305
638.000	230
639.000	174
640.000	132
641.000	104
642.000	87
643.000	70
644.000	64
645.000	60
646.000	56
647.000	57
648.000	52
649.000	53
650.000	49
651.000	48
652.000	48
653.000	51
654.000	51
655.000	52
656.000	52
657.000	51
658.000	50
659.000	51
660.000	53
661.000	55
662.000	56
663.000	54
664.000	53
665.000	56
666.000	58
667.000	57
668.000	62
669.000	62
670.000	66
671.000	65
672.000	67
673.000	75
674.000	80
675.000	88
676.000	96
677.000	107
678.000	123
679.000	140
680.000	168
681.000	188
682.000	204
683.000	241
684.000	265
685.000	297
686.000	315
687.000	342
688.000	346
689.000	366
690.000	360
691.000	359
692.000	329
693.000	303
694.000	270
695.000	244
696.000	217
697.000	189
698.000	165
699.000	144
700.000	114
701.000	102
702.000	93
703.000	77
704.000	71
705.000	67
706.000	67
707.000	67
708.000	59
709.000	60
710.000	63
711.000	65
712.000	64
713.000	69
714.000	73
715.000	68
716.000	75
717.000	75
718.000	85
719.000	86
720.000	88
721.000	87
722.000	95
723.000	91
724.000	97
725.000	91
726.000	94
727.000	90
728.000	93
729.000	90
730.000	89
731.000	82
732.000	85
733.000	77
734.000	78
735.000	74
736.000	79
737.000	76
738.000	72
739.000	71
740.000	70
741.000	67
742.000	69
743.000	70
744.000	70
745.000	63
746.000	72
747.000	68
748.000	70
749.000	68
750.000	73
751.000	74
752.000	74
753.000	72
754.000	70
755.000	74
756.000	71
757.000	74
758.000	77
759.000	70
760.000	70
761.000	69
762.000	75
763.000	75
764.000	76
765.000	73
766.000	69
767.000	72
768.000	80
769.000	79
770.000	79
771.000	78
772.000	79
773.000	77
774.000	89
775.000	89
776.000	90
777.000	93
778.000	93
779.000	97
780.000	102
781.000	110
782.000	106
783.000	107
784.000	114
785.000	112
786.000	121
787.000	117
788.000	127
789.000	128
790.000	129
791.000	134
792.000	136
793.000	133
794.000	139
795.000	135
796.000	135
797.000	141
798.000	136
799.000	135
800.000	144
801.000	146
802.000	150
803.000	137
804.000	146
805.000	148
806.000	158
807.000	164
808.000	177
809.000	184
810.000	195
811.000	212
812.000	225
813.000	253
814.000	260
815.000	268
816.000	283
817.000	302
818.000	300
819.000	309
820.000	310
821.000	301
822.000	295
823.000	287
824.000	278
825.000	263
826.000	239
827.000	230
828.000	198
829.000	181
830.000	170
831.000	153
832.000	149
833.000	140
834.000	126
835.000	129
836.000	127
837.000	126
838.000	115
839.000	127
840.000	123
841.000	121
842.000	124
843.000	119
844.000	126
845.000	117
846.000	118
847.000	127
848.000	117
849.000	114
850.000	116
851.000	120
852.000	118
853.000	120
854.000	125
855.000	114
856.000	118
857.000	115
858.000	113
859.000	115
860.000	119
861.000	118
862.000	117
863.000	120
864.000	112
865.000	112
866.000	120
867.000	107
868.000	115
869.000	114
870.000	112
871.000	119
872.000	115
873.000	111
874.000	111
875.000	117
876.000	118
877.000	117
878.000	116
879.000	116
880.000	118
881.000	112
882.000	112
883.000	113
884.000	116
885.000	112
886.000	115
887.000	117
888.000	116
889.000	120
890.000	124
891.000	123
892.000	121
893.000	120
894.000	120
895.000	123
896.000	124
897.000	136
898.000	131
899.000	138
900.000	139
901.000	139
902.000	141
903.000	141
904.000	140
905.000	155
906.000	151
907.000	155
908.000	159
909.000	156
910.000	156
911.000	164
912.000	157
913.000	168
914.000	165
915.000	171
916.000	172
917.000	175
918.000	175
919.000	172
920.000	172
921.000	175
922.000	176
923.000	174
924.000	179
925.000	181
926.000	193
927.000	187
928.000	187
929.000	188
930.000	203
931.000	204
932.000	206
933.000	213
934.000	212
935.000	220
936.000	236
937.000	235
938.000	237
939.000	249
940.000	256
941.000	264
942.000	260
943.000	261
944.000	267
945.000	262
946.000	260
947.000	244
948.000	255
949.000	244
950.000	226
951.000	225
952.000	217
953.000	210
954.000	200
955.000	189
956.000	189
957.000	184
958.000	183
959.000	183
960.000	173
961.000	179
962.000	184
963.000	179
964.000	178
965.000	175
966.000	183
967.000	181
968.000	184
969.000	186
970.000	180
971.000	189
972.000	186
973.000	186
974.000	183
975.000	182
976.000	178
977.000	175
978.000	174
979.000	171
980.000	163
981.000	162
982.000	159
983.000	160
984.000	156
985.000	152
986.000	146
987.000	148
988.000	145
989.000	143
990.000	145
991.000	138
992.000	136
993.000	141
994.000	144
995.000	135
996.000	138
997.000	133
998.000	134
999.000	131
1000.000	138
1001.000	136
1002.000	137
1003.000	136
1004.000	128
1005.000	132
1006.000	132
1007.000	131
1008.000	137
1009.000	138
1010.000	132
1011.000	127
1012.000	133
1013.000	135
1014.000	139
1015.000	128
1016.000	129
1017.000	132
1018.000	136
1019.000	130
1020.000	138
1021.000	136
1022.000	136
1023.000	142
1024.000	131
1025.000	135
1026.000	146
1027.000	140
1028.000	139
1029.000	135
1030.000	140
1031.000	137
1032.000	142
1033.000	134
1034.000	138
1035.000	142
1036.000	142
1037.000	144
1038.000	144
1039.000	142
1040.000	144
1041.000	141
1042.000	143
1043.000	146
1044.000	145
1045.000	147
1046.000	147
1047.000	150
1048.000	153
1049.000	152
1050.000	155
1051.000	153
1052.000	147
1053.000	154
1054.000	157
1055.000	151
1056.000	158
1057.000	157
1058.000	153
1059.000	156
1060.000	159
1061.000	158
1062.000	167
1063.000	160
1064.000	155
1065.000	157
1066.000	156
1067.000	158
1068.000	160
1069.000	155
1070.000	163
1071.000	152
1072.000	153
1073.000	162
1074.000	158
1075.000	160
1076.000	160
1077.000	155
1078.000	156
1079.000	158
1080.000	146
1081.000	157
1082.000	157
1083.000	155
1084.000	167
1085.000	161
1086.000	160
1087.000	162
1088.000	153
1089.000	154
1090.000	161
1091.000	164
1092.000	168
1093.000	164
1094.000	164
1095.000	171
1096.000	163
1097.000	176
1098.000	163
1099.000	172
1100.000	165
1101.000	177
1102.000	176
1103.000	178
1104.000	169
1105.000	170
1106.000	172
1107.000	173
1108.000	167
1109.000	158
1110.000	169
1111.000	164
1112.000	170
1113.000	159
1114.000	160
1115.000	157
1116.000	162
1117.000	168
1118.000	160
1119.000	157
1120.000	159
1121.000	160
1122.000	152
1123.000	160
1124.000	159
1125.000	164
1126.000	162
1127.000	156
1128.000	165
1129.000	165
1130.000	159
1131.000	164
1132.000	164
1133.000	163
1134.000	174
1135.000	170
1136.000	165
1137.000	164
1138.000	167
1139.000	158
1140.000	167
1141.000	161
1142.000	162
1143.000	168
1144.000	170
1145.000	167
1146.000	167
1147.000	173
1148.000	168
1149.000	175
1150.000	172
1151.000	170
1152.000	171
1153.000	175
1154.000	173
1155.000	186
1156.000	182
1157.000	183
1158.000	181
1159.000	180
1160.000	193
1161.000	188
1162.000	187
1163.000	183
1164.000	191
1165.000	176
1166.000	178
1167.000	181
1168.000	179
1169.000	172
1170.000	175
1171.000	174
1172.000	167
1173.000	166
1174.000	174
1175.000	158
1176.000	157
1177.000	160
1178.000	156
1179.000	163
1180.000	168
1181.000	168
1182.000	160
1183.000	164
1184.000	158
1185.000	166
1186.000	155
1187.000	162
1188.000	166
1189.000	156
1190.000	153
1191.000	153
1192.000	158
1193.000	157
1194.000	166
1195.000	156
1196.000	156
1197.000	159
1198.000	165
1199.000	163
1200.000	154
1201.000	165
1202.000	160
1203.000	158
1204.000	171
1205.000	164
1206.000	159
1207.000	163
1208.000	163
1209.000	158
1210.000	169
1211.000	161
1212.000	174
1213.000	168
1214.000	161
1215.000	169
1216.000	164
1217.000	165
1218.000	161
1219.000	169
1220.000	168
1221.000	170
1222.000	166
1223.000	169
1224.000	164
1225.000	174
1226.000	171
1227.000	169
1228.000	170
1229.000	170
1230.000	168
1231.000	163
1232.000	166
1233.000	163
1234.000	170
1235.000	170
1236.000	168
1237.000	169
1238.000	173
1239.000	167
1240.000	167
1241.000	172
1242.000	161
1243.000	166
1244.000	161
1245.000	162
1246.000	166
1247.000	171
1248.000	164
1249.000	169
1250.000	168
1251.000	167
1252.000	168
1253.000	165
1254.000	169
1255.000	174
1256.000	171
1257.000	166
1258.000	169
1259.000	163
1260.000	168
1261.000	170
1262.000	169
1263.000	155
1264.000	167
1265.000	164
1266.000	162
1267.000	164
1268.000	167
1269.000	174
1270.000	166
1271.000	165
1272.000	165
1273.000	160
1274.000	165
1275.000	167
1276.000	164
1277.000	163
1278.000	152
1279.000	166
1280.000	175
1281.000	163
1282.000	164
1283.000	166
1284.000	165
1285.000	160
1286.000	163
1287.000	162
1288.000	167
1289.000	164
1290.000	175
1291.000	172
1292.000	170
1293.000	175
1294.000	174
1295.000	168
1296.000	170
1297.000	173
1298.000	178
1299.000	180
1300.000	170
1301.000	183
1302.000	184
1303.000	181
1304.000	178
1305.000	177
1306.000	173
1307.000	177
1308.000	174
1309.000	171
1310.000	181
1311.000	173
1312.000	178
1313.000	176
1314.000	172
1315.000	176
1316.000	169
1317.000	168
1318.000	169
1319.000	174
1320.000	172
1321.000	175
1322.000	168
1323.000	176
1324.000	175
1325.000	178
1326.000	163
1327.000	170
1328.000	170
1329.000	169
1330.000	171
1331.000	169
1332.000	171
1333.000	173
1334.000	167
1335.000	174
1336.000	175
1337.000	162
1338.000	183
1339.000	171
1340.000	162
1341.000	170
1342.000	174
1343.000	169
1344.000	172
1345.000	173
1346.000	174
1347.000	170
1348.000	172
1349.000	173
1350.000	179
1351.000	175
1352.000	183
1353.000	184
1354.000	190
1355.000	194
1356.000	203
1357.000	214
1358.000	222
1359.000	246
1360.000	250
1361.000	273
1362.000	296
1363.000	330
1364.000	364
1365.000	396
1366.000	447
1367.000	492
1368.000	552
1369.000	607
1370.000	656
1371.000	724
1372.000	776
1373.000	834
1374.000	894
1375.000	935
1376.000	988
1377.000	1005
1378.000	1036
1379.000	1049
1380.000	1060
1381.000	1039
1382.000	1011
1383.000	1000
1384.000	944
1385.000	908
1386.000	863
1387.000	790
1388.000	722
1389.000	672
1390.000	615
1391.000	554
1392.000	493
1393.000	448
1394.000	404
1395.000	369
1396.000	316
1397.000	296
1398.000	256
1399.000	242
1400.000	219
1401.000	207
1402.000	204
1403.000	190
1404.000	180
1405.000	178
1406.000	174
1407.000	173
1408.000	170
1409.000	178
1410.000	169
1411.000	172
1412.000	166
1413.000	174
1414.000	171
1415.000	163
1416.000	163
1417.000	169
1418.000	165
1419.000	172
1420.000	170
1421.000	167
1422.000	168
1423.000	165
1424.000	165
1425.000	164
1426.000	166
1427.000	163
1428.000	170
1429.000	159
1430.000	171
1431.000	168
1432.000	171
1433.000	177
1434.000	165
1435.000	171
1436.000	169
1437.000	171
1438.000	167
1439.000	170
1440.000	162
1441.000	169
1442.000	167
1443.000	172
1444.000	169
1445.000	171
1446.000	171
1447.000	172
1448.000	174
1449.000	170
1450.000	174
1451.000	172
1452.000	177
1453.000	172
1454.000	175
1455.000	173
1456.000	179
1457.000	174
1458.000	171
1459.000	169
1460.000	177
1461.000	177
1462.000	172
1463.000	181
1464.000	177
1465.000	182
1466.000	167
1467.000	181
1468.000	175
1469.000	176
1470.000	172
1471.000	173
1472.000	169
1473.000	175
1474.000	171
1475.000	175
1476.000	171
1477.000	172
1478.000	172
1479.000	173
1480.000	174
1481.000	176
1482.000	172
1483.000	175
1484.000	175
1485.000	174
1486.000	166
1487.000	180
1488.000	171
1489.000	173
1490.000	172
1491.000	169
1492.000	179
1493.000	171
1494.000	179
1495.000	168
1496.000	171
1497.000	168
1498.000	175
1499.000	183
1500.000	171
1501.000	183
1502.000	183
1503.000	180
1504.000	175
1505.000	187
1506.000	180
1507.000	184
1508.000	175
1509.000	184
1510.000	181
1511.000	175
1512.000	187
1513.000	184
1514.000	180
1515.000	179
1516.000	183
1517.000	183
1518.000	187
1519.000	182
1520.000	187
1521.000	192
1522.000	177
1523.000	194
1524.000	198
1525.000	208
1526.000	203
1527.000	219
1528.000	221
1529.000	224
1530.000	237
1531.000	244
1532.000	260
1533.000	259
1534.000	272
1535.000	283
1536.000	295
1537.000	304
1538.000	308
1539.000	321
1540.000	338
1541.000	329
1542.000	347
1543.000	344
1544.000	354
1545.000	345
1546.000	350
1547.000	351
1548.000	335
1549.000	333
1550.000	326
1551.000	324
1552.000	308
1553.000	309
1554.000	301
1555.000	288
1556.000	274
1557.000	281
1558.000	279
1559.000	268
1560.000	265
1561.000	269
1562.000	268
1563.000	264
1564.000	269
1565.000	280
1566.000	277
1567.000	276
1568.000	292
1569.000	286
1570.000	292
1571.000	287
1572.000	308
1573.000	314
1574.000	314
1575.000	323
1576.000	322
1577.000	339
1578.000	342
1579.000	354
1580.000	361
1581.000	372
1582.000	380
1583.000	392
1584.000	398
1585.000	416
1586.000	422
1587.000	443
1588.000	442
1589.000	444
1590.000	467
1591.000	479
1592.000	484
1593.000	500
1594.000	519
1595.000	526
1596.000	531
1597.000	538
1598.000	547
1599.000	549
1600.000	557
1601.000	573
1602.000	570
1603.000	563
1604.000	576
1605.000	569
1606.000	582
1607.000	585
1608.000	593
1609.000	603
1610.000	592
1611.000	583
1612.000	579
1613.000	574
1614.000	573
1615.000	546
1616.000	560
1617.000	536
1618.000	544
1619.000	544
1620.000	528
1621.000	515
1622.000	505
1623.000	494
1624.000	485
1625.000	478
1626.000	461
1627.000	449
1628.000	441
1629.000	425
1630.000	420
1631.000	414
1632.000	390
1633.000	382
1634.000	373
1635.000	357
1636.000	357
1637.000	335
1638.000	331
1639.000	323
1640.000	315
1641.000	308
1642.000	301
1643.000	289
1644.000	283
1645.000	269
1646.000	283
1647.000	265
1648.000	253
1649.000	243
1650.000	233
1651.000	243
1652.000	227
1653.000	229
1654.000	221
1655.000	215
1656.000	206
1657.000	209
1658.000	200
1659.000	199
1660.000	200
1661.000	192
1662.000	186
1663.000	185
1664.000	182
1665.000	179
1666.000	183
1667.000	180
1668.000	183
1669.000	176
1670.000	168
1671.000	180
1672.000	177
1673.000	175
1674.000	181
1675.000	178
1676.000	184
1677.000	188
1678.000	187
1679.000	193
1680.000	207
1681.000	215
1682.000	228
1683.000	247
1684.000	259
1685.000	282
1686.000	293
1687.000	313
1688.000	330
1689.000	343
1690.000	372
1691.000	399
1692.000	415
1693.000	437
1694.000	453
1695.000	472
1696.000	499
1697.000	510
1698.000	532
1699.000	538
1700.000	543
1701.000	536
1702.000	541
1703.000	528
1704.000	539
1705.000	517
1706.000	507
1707.000	491
1708.000	471
1709.000	451
1710.000	424
1711.000	401
1712.000	385
1713.000	341
1714.000	322
1715.000	306
1716.000	282
1717.000	263
1718.000	235
1719.000	223
1720.000	214
1721.000	203
1722.000	179
1723.000	174
1724.000	165
1725.000	159
1726.000	159
1727.000	156
1728.000	143
1729.000	145
1730.000	140
1731.000	133
1732.000	131
1733.000	142
1734.000	137
1735.000	136
1736.000	136
1737.000	135
1738.000	136
1739.000	140
1740.000	145
1741.000	133
1742.000	133
1743.000	147
1744.000	141
1745.000	136
1746.000	141
1747.000	133
1748.000	137
1749.000	136
1750.000	142
1751.000	138
1752.000	139
1753.000	140
1754.000	141
1755.000	143
1756.000	140
1757.000	144
1758.000	148
1759.000	149
1760.000	150
1761.000	146
1762.000	144
1763.000	149
1764.000	147
1765.000	154
1766.000	156
1767.000	158
1768.000	158
1769.000	158
1770.000	166
1771.000	159
1772.000	168
1773.000	167
1774.000	169
1775.000	176
1776.000	171
1777.000	175
1778.000	176
1779.000	181
1780.000	183
1781.000	181
1782.000	176
1783.000	186
1784.000	189
1785.000	182
1786.000	184
1787.000	184
1788.000	198
1789.000	191
1790.000	189
1791.000	190
1792.000	188
1793.000	191
1794.000	192
1795.000	188
1796.000	188
1797.000	190
1798.000	184
1799.000	198
1800.000	182
1801.000	186
1802.000	189
1803.000	182
1804.000	184
1805.000	174
1806.000	175
1807.000	179
1808.000	176
1809.000	163
1810.000	176
1811.000	172
1812.000	165
1813.000	155
1814.000	158
1815.000	164
1816.000	157
1817.000	153
1818.000	151
1819.000	151
1820.000	151
1821.000	149
1822.000	145
1823.000	142
1824.000	139
1825.000	138
1826.000	136
1827.000	132
1828.000	130
1829.000	136
1830.000	131
1831.000	125
1832.000	122
1833.000	125
1834.000	118
1835.000	117
1836.000	117
1837.000	111
1838.000	115
1839.000	112
1840.000	104
1841.000	109
1842.000	108
1843.000	98
1844.000	105
1845.000	99
1846.000	98
1847.000	98
1848.000	95
1849.000	99
1850.000	100
1851.000	93
1852.000	97
1853.000	91
1854.000	90
1855.000	87
1856.000	86
1857.000	81
1858.000	84
1859.000	84
1860.000	85
1861.000	85
1862.000	83
1863.000	81
1864.000	82
1865.000	74
1866.000	80
1867.000	79
1868.000	76
1869.000	82
1870.000	76
1871.000	76
1872.000	72
1873.000	76
1874.000	74
1875.000	75
1876.000	77
1877.000	73
1878.000	75
1879.000	73
1880.000	69
1881.000	70
1882.000	72
1883.000	72
1884.000	70
1885.000	72
1886.000	75
1887.000	71
1888.000	71
1889.000	75
1890.000	71
1891.000	74
1892.000	78
1893.000	78
1894.000	78
1895.000	77
1896.000	83
1897.000	86
1898.000	87
1899.000	93
1900.000	92
1901.000	94
1902.000	100
1903.000	102
1904.000	108
1905.000	111
1906.000	110
1907.000	113
1908.000	119
1909.000	118
1910.000	118
1911.000	119
1912.000	120
1913.000	123
1914.000	118
1915.000	114
1916.000	115
1917.000	108
1918.000	108
1919.000	106
1920.000	99
1921.000	92
1922.000	87
1923.000	85
1924.000	89
1925.000	83
1926.000	76
1927.000	75
1928.000	75
1929.000	72
1930.000	76
1931.000	68
1932.000	69
1933.000	67
1934.000	69
1935.000	72
1936.000	66
1937.000	67
1938.000	66
1939.000	65
1940.000	63
1941.000	65
1942.000	64
1943.000	69
1944.000	64
1945.000	62
1946.000	60
1947.000	60
1948.000	63
1949.000	65
1950.000	60
1951.000	59
1952.000	62
1953.000	57
1954.000	61
1955.000	57
1956.000	59
1957.000	58
1958.000	53
1959.000	52
1960.000	52
1961.000	56
1962.000	54
1963.000	51
1964.000	54
1965.000	51
1966.000	51
1967.000	47
1968.000	50
1969.000	53
1970.000	47
1971.000	52
1972.000	50
1973.000	52
1974.000	49
1975.000	50
1976.000	51
1977.000	48
1978.000	49
1979.000	49
1980.000	52
1981.000	46
1982.000	47
1983.000	51
1984.000	46
1985.000	51
1986.000	47
1987.000	50
1988.000	48
1989.000	48
1990.000	53
1991.000	49
1992.000	49
1993.000	47
1994.000	48
1995.000	45
1996.000	45
1997.000	47
1998.000	48
1999.000	50
2000.000	46
2001.000	45
2002.000	49
2003.000	46
2004.000	49
2005.000	49
2006.000	52
2007.000	50
2008.000	46
2009.000	48
2010.000	46
2011.000	48
2012.000	46
2013.000	46
2014.000	45
2015.000	47
2016.000	48
2017.000	49
2018.000	48
2019.000	45
2020.000	49
2021.000	46
2022.000	44
2023.000	43
2024.000	45
2025.000	45
2026.000	44
2027.000	44
2028.000	47
2029.000	48
2030.000	46
2031.000	46
2032.000	46
2033.000	43
2034.000	43
2035.000	45
2036.000	48
2037.000	49
2038.000	43
2039.000	44
2040.000	42
2041.000	44
2042.000	45
2043.000	46
2044.000	48
2045.000	44
2046.000	43
2047.000	45
2048.000	0
