Date:	22-Sep-20		Time:	10:49 PM		Version no:	0.00		Project name:	55		Sample name:	222		Section name:	section		Position	0.000000	mm	E0	0.000000	keV	E1	1.000000	keV/channel	sample surface	2.000000	cm	Tube anode:	Mo		Tube voltage:	30	kV	Tube current:	30	mA	gain	15		std. database			resultfile	result		matrix element	11		sample thickness	1.000000		air passage	0.560000	cm	comments	not in position		peaking_time	0.300000	m-sec	trigger_threshold	40.000000	V	mca_bin_width	2.000000	no:	number_mca_channels	2048.000000	no:	gap_time	2048.000000	m-sec	trigger_peaking_time	2048.000000	m-sec	GAINDAC	400		HIGHGAIN	400		TAURC	400		RCTAU	400		RCTAUFRAC	400		livetime	12.778311	seconds	runtime	15.000098	seconds	input_count_rate	8453.386602	cps	output_count_rate	7201.286285	cps	triggers	126178	seconds	events_in_run	98622	seconds	channel	content		1.000	0
2.000	0
3.000	0
4.000	0
5.000	0
6.000	0
7.000	0
8.000	0
9.000	0
10.000	0
11.000	0
12.000	0
13.000	0
14.000	0
15.000	0
16.000	0
17.000	0
18.000	0
19.000	0
20.000	0
21.000	0
22.000	0
23.000	0
24.000	0
25.000	0
26.000	0
27.000	0
28.000	0
29.000	0
30.000	0
31.000	0
32.000	0
33.000	0
34.000	0
35.000	0
36.000	0
37.000	0
38.000	0
39.000	0
40.000	0
41.000	0
42.000	0
43.000	0
44.000	0
45.000	0
46.000	0
47.000	0
48.000	0
49.000	0
50.000	0
51.000	1
52.000	2
53.000	2
54.000	3
55.000	5
56.000	6
57.000	7
58.000	12
59.000	13
60.000	21
61.000	25
62.000	25
63.000	26
64.000	26
65.000	28
66.000	25
67.000	22
68.000	23
69.000	24
70.000	21
71.000	22
72.000	22
73.000	22
74.000	21
75.000	20
76.000	21
77.000	19
78.000	19
79.000	20
80.000	20
81.000	24
82.000	21
83.000	23
84.000	20
85.000	20
86.000	23
87.000	20
88.000	18
89.000	22
90.000	21
91.000	19
92.000	19
93.000	20
94.000	19
95.000	19
96.000	19
97.000	18
98.000	16
99.000	16
100.000	18
101.000	17
102.000	18
103.000	17
104.000	15
105.000	16
106.000	16
107.000	16
108.000	15
109.000	14
110.000	18
111.000	15
112.000	15
113.000	14
114.000	15
115.000	15
116.000	15
117.000	17
118.000	14
119.000	16
120.000	15
121.000	14
122.000	15
123.000	12
124.000	13
125.000	12
126.000	12
127.000	13
128.000	12
129.000	12
130.000	13
131.000	12
132.000	13
133.000	12
134.000	13
135.000	12
136.000	14
137.000	12
138.000	12
139.000	14
140.000	15
141.000	17
142.000	16
143.000	18
144.000	20
145.000	18
146.000	20
147.000	20
148.000	18
149.000	20
150.000	17
151.000	18
152.000	16
153.000	15
154.000	16
155.000	16
156.000	14
157.000	14
158.000	14
159.000	13
160.000	11
161.000	12
162.000	18
163.000	24
164.000	31
165.000	41
166.000	62
167.000	81
168.000	94
169.000	109
170.000	125
171.000	122
172.000	112
173.000	104
174.000	92
175.000	69
176.000	54
177.000	43
178.000	37
179.000	27
180.000	29
181.000	28
182.000	27
183.000	33
184.000	43
185.000	51
186.000	64
187.000	85
188.000	98
189.000	116
190.000	122
191.000	124
192.000	129
193.000	116
194.000	93
195.000	77
196.000	59
197.000	43
198.000	33
199.000	24
200.000	18
201.000	12
202.000	12
203.000	12
204.000	12
205.000	11
206.000	11
207.000	10
208.000	11
209.000	10
210.000	11
211.000	11
212.000	10
213.000	14
214.000	11
215.000	12
216.000	14
217.000	18
218.000	18
219.000	19
220.000	21
221.000	25
222.000	25
223.000	28
224.000	23
225.000	24
226.000	23
227.000	21
228.000	18
229.000	15
230.000	11
231.000	11
232.000	11
233.000	10
234.000	11
235.000	9
236.000	8
237.000	8
238.000	8
239.000	9
240.000	9
241.000	9
242.000	8
243.000	9
244.000	9
245.000	10
246.000	10
247.000	14
248.000	13
249.000	21
250.000	24
251.000	32
252.000	38
253.000	45
254.000	61
255.000	66
256.000	73
257.000	70
258.000	68
259.000	69
260.000	54
261.000	45
262.000	38
263.000	32
264.000	25
265.000	19
266.000	15
267.000	16
268.000	13
269.000	13
270.000	12
271.000	15
272.000	13
273.000	15
274.000	19
275.000	15
276.000	16
277.000	17
278.000	17
279.000	14
280.000	15
281.000	17
282.000	17
283.000	23
284.000	22
285.000	29
286.000	32
287.000	35
288.000	40
289.000	43
290.000	48
291.000	43
292.000	39
293.000	38
294.000	31
295.000	27
296.000	24
297.000	20
298.000	17
299.000	15
300.000	13
301.000	14
302.000	12
303.000	13
304.000	14
305.000	15
306.000	14
307.000	17
308.000	16
309.000	17
310.000	18
311.000	21
312.000	25
313.000	34
314.000	36
315.000	46
316.000	66
317.000	83
318.000	121
319.000	151
320.000	185
321.000	225
322.000	261
323.000	280
324.000	293
325.000	307
326.000	283
327.000	268
328.000	229
329.000	195
330.000	146
331.000	115
332.000	85
333.000	65
334.000	44
335.000	30
336.000	25
337.000	22
338.000	24
339.000	24
340.000	27
341.000	32
342.000	36
343.000	47
344.000	63
345.000	81
346.000	117
347.000	165
348.000	259
349.000	392
350.000	633
351.000	949
352.000	1428
353.000	2076
354.000	2936
355.000	4016
356.000	5260
357.000	6580
358.000	7835
359.000	8990
360.000	9793
361.000	10222
362.000	10206
363.000	9676
364.000	8765
365.000	7564
366.000	6240
367.000	4902
368.000	3690
369.000	2646
370.000	1815
371.000	1194
372.000	765
373.000	469
374.000	292
375.000	181
376.000	116
377.000	94
378.000	84
379.000	90
380.000	104
381.000	141
382.000	179
383.000	248
384.000	338
385.000	447
386.000	590
387.000	759
388.000	938
389.000	1105
390.000	1260
391.000	1408
392.000	1460
393.000	1481
394.000	1451
395.000	1362
396.000	1215
397.000	1033
398.000	843
399.000	661
400.000	503
401.000	357
402.000	243
403.000	167
404.000	108
405.000	69
406.000	41
407.000	24
408.000	17
409.000	10
410.000	7
411.000	8
412.000	4
413.000	5
414.000	5
415.000	6
416.000	5
417.000	5
418.000	5
419.000	5
420.000	6
421.000	5
422.000	6
423.000	5
424.000	6
425.000	7
426.000	9
427.000	9
428.000	13
429.000	17
430.000	21
431.000	31
432.000	42
433.000	56
434.000	67
435.000	92
436.000	105
437.000	125
438.000	142
439.000	157
440.000	167
441.000	166
442.000	161
443.000	155
444.000	141
445.000	120
446.000	108
447.000	93
448.000	72
449.000	60
450.000	54
451.000	44
452.000	37
453.000	36
454.000	28
455.000	28
456.000	25
457.000	27
458.000	23
459.000	23
460.000	16
461.000	14
462.000	16
463.000	14
464.000	14
465.000	13
466.000	14
467.000	14
468.000	15
469.000	15
470.000	16
471.000	17
472.000	19
473.000	23
474.000	23
475.000	22
476.000	27
477.000	33
478.000	34
479.000	38
480.000	42
481.000	42
482.000	41
483.000	42
484.000	39
485.000	39
486.000	34
487.000	32
488.000	31
489.000	25
490.000	22
491.000	20
492.000	18
493.000	14
494.000	15
495.000	12
496.000	12
497.000	13
498.000	12
499.000	12
500.000	12
501.000	11
502.000	13
503.000	11
504.000	13
505.000	15
506.000	13
507.000	11
508.000	14
509.000	15
510.000	16
511.000	16
512.000	15
513.000	15
514.000	17
515.000	17
516.000	16
517.000	19
518.000	20
519.000	19
520.000	21
521.000	24
522.000	23
523.000	29
524.000	29
525.000	31
526.000	31
527.000	34
528.000	33
529.000	37
530.000	32
531.000	38
532.000	30
533.000	29
534.000	27
535.000	25
536.000	24
537.000	23
538.000	22
539.000	21
540.000	19
541.000	19
542.000	16
543.000	18
544.000	18
545.000	19
546.000	16
547.000	17
548.000	19
549.000	17
550.000	17
551.000	18
552.000	19
553.000	18
554.000	21
555.000	19
556.000	22
557.000	21
558.000	22
559.000	23
560.000	24
561.000	26
562.000	25
563.000	27
564.000	32
565.000	33
566.000	38
567.000	46
568.000	47
569.000	61
570.000	66
571.000	79
572.000	86
573.000	90
574.000	96
575.000	99
576.000	104
577.000	105
578.000	98
579.000	98
580.000	85
581.000	79
582.000	69
583.000	62
584.000	58
585.000	48
586.000	45
587.000	38
588.000	29
589.000	29
590.000	28
591.000	26
592.000	24
593.000	25
594.000	24
595.000	24
596.000	25
597.000	26
598.000	25
599.000	27
600.000	25
601.000	29
602.000	33
603.000	35
604.000	37
605.000	48
606.000	57
607.000	72
608.000	95
609.000	129
610.000	188
611.000	262
612.000	374
613.000	522
614.000	719
615.000	987
616.000	1314
617.000	1691
618.000	2139
619.000	2591
620.000	3073
621.000	3573
622.000	3983
623.000	4313
624.000	4607
625.000	4720
626.000	4688
627.000	4546
628.000	4239
629.000	3887
630.000	3379
631.000	2933
632.000	2441
633.000	1975
634.000	1558
635.000	1203
636.000	887
637.000	652
638.000	476
639.000	340
640.000	241
641.000	163
642.000	119
643.000	90
644.000	76
645.000	62
646.000	56
647.000	48
648.000	50
649.000	46
650.000	42
651.000	43
652.000	43
653.000	45
654.000	40
655.000	39
656.000	48
657.000	42
658.000	47
659.000	43
660.000	42
661.000	45
662.000	45
663.000	45
664.000	49
665.000	49
666.000	49
667.000	52
668.000	55
669.000	65
670.000	65
671.000	72
672.000	77
673.000	88
674.000	97
675.000	112
676.000	144
677.000	163
678.000	201
679.000	248
680.000	298
681.000	363
682.000	430
683.000	497
684.000	577
685.000	638
686.000	705
687.000	739
688.000	772
689.000	790
690.000	778
691.000	756
692.000	709
693.000	657
694.000	580
695.000	500
696.000	437
697.000	367
698.000	302
699.000	249
700.000	196
701.000	157
702.000	129
703.000	101
704.000	88
705.000	63
706.000	57
707.000	51
708.000	51
709.000	48
710.000	48
711.000	41
712.000	42
713.000	44
714.000	46
715.000	47
716.000	50
717.000	50
718.000	55
719.000	53
720.000	55
721.000	58
722.000	58
723.000	66
724.000	60
725.000	66
726.000	64
727.000	64
728.000	68
729.000	70
730.000	70
731.000	68
732.000	70
733.000	66
734.000	69
735.000	61
736.000	61
737.000	57
738.000	57
739.000	54
740.000	56
741.000	55
742.000	52
743.000	48
744.000	51
745.000	52
746.000	49
747.000	52
748.000	51
749.000	54
750.000	55
751.000	50
752.000	49
753.000	51
754.000	51
755.000	51
756.000	52
757.000	53
758.000	51
759.000	50
760.000	52
761.000	52
762.000	54
763.000	53
764.000	49
765.000	55
766.000	53
767.000	53
768.000	60
769.000	54
770.000	58
771.000	59
772.000	56
773.000	60
774.000	65
775.000	64
776.000	65
777.000	68
778.000	74
779.000	74
780.000	77
781.000	84
782.000	83
783.000	86
784.000	85
785.000	91
786.000	91
787.000	99
788.000	98
789.000	97
790.000	99
791.000	104
792.000	104
793.000	104
794.000	105
795.000	108
796.000	105
797.000	119
798.000	114
799.000	109
800.000	113
801.000	115
802.000	115
803.000	121
804.000	123
805.000	124
806.000	128
807.000	131
808.000	136
809.000	147
810.000	157
811.000	164
812.000	171
813.000	190
814.000	197
815.000	220
816.000	226
817.000	224
818.000	247
819.000	240
820.000	242
821.000	237
822.000	239
823.000	217
824.000	214
825.000	196
826.000	188
827.000	169
828.000	155
829.000	146
830.000	133
831.000	132
832.000	118
833.000	110
834.000	108
835.000	101
836.000	103
837.000	98
838.000	100
839.000	100
840.000	105
841.000	103
842.000	104
843.000	102
844.000	104
845.000	101
846.000	101
847.000	98
848.000	102
849.000	100
850.000	95
851.000	98
852.000	94
853.000	92
854.000	99
855.000	94
856.000	91
857.000	92
858.000	92
859.000	89
860.000	88
861.000	92
862.000	88
863.000	89
864.000	95
865.000	92
866.000	89
867.000	94
868.000	97
869.000	93
870.000	89
871.000	93
872.000	97
873.000	93
874.000	94
875.000	94
876.000	91
877.000	93
878.000	92
879.000	94
880.000	92
881.000	89
882.000	96
883.000	98
884.000	96
885.000	97
886.000	100
887.000	101
888.000	105
889.000	105
890.000	102
891.000	104
892.000	106
893.000	105
894.000	111
895.000	107
896.000	106
897.000	114
898.000	114
899.000	122
900.000	117
901.000	116
902.000	116
903.000	125
904.000	131
905.000	126
906.000	130
907.000	130
908.000	136
909.000	136
910.000	129
911.000	140
912.000	136
913.000	136
914.000	140
915.000	135
916.000	142
917.000	150
918.000	139
919.000	140
920.000	146
921.000	141
922.000	150
923.000	153
924.000	157
925.000	144
926.000	155
927.000	154
928.000	152
929.000	161
930.000	162
931.000	172
932.000	170
933.000	175
934.000	186
935.000	186
936.000	197
937.000	196
938.000	192
939.000	207
940.000	220
941.000	213
942.000	224
943.000	214
944.000	220
945.000	222
946.000	223
947.000	212
948.000	209
949.000	201
950.000	198
951.000	190
952.000	183
953.000	180
954.000	175
955.000	161
956.000	156
957.000	158
958.000	152
959.000	154
960.000	155
961.000	148
962.000	154
963.000	155
964.000	150
965.000	149
966.000	153
967.000	158
968.000	155
969.000	158
970.000	161
971.000	159
972.000	163
973.000	157
974.000	159
975.000	150
976.000	151
977.000	147
978.000	150
979.000	150
980.000	136
981.000	143
982.000	139
983.000	132
984.000	122
985.000	133
986.000	128
987.000	123
988.000	126
989.000	113
990.000	123
991.000	117
992.000	120
993.000	114
994.000	117
995.000	124
996.000	116
997.000	118
998.000	118
999.000	115
1000.000	118
1001.000	115
1002.000	118
1003.000	118
1004.000	114
1005.000	111
1006.000	116
1007.000	115
1008.000	112
1009.000	114
1010.000	117
1011.000	114
1012.000	116
1013.000	112
1014.000	111
1015.000	118
1016.000	117
1017.000	112
1018.000	118
1019.000	121
1020.000	121
1021.000	118
1022.000	117
1023.000	122
1024.000	120
1025.000	119
1026.000	123
1027.000	126
1028.000	124
1029.000	119
1030.000	119
1031.000	121
1032.000	123
1033.000	119
1034.000	125
1035.000	125
1036.000	122
1037.000	126
1038.000	118
1039.000	126
1040.000	118
1041.000	119
1042.000	124
1043.000	134
1044.000	128
1045.000	122
1046.000	130
1047.000	126
1048.000	123
1049.000	126
1050.000	125
1051.000	123
1052.000	125
1053.000	130
1054.000	128
1055.000	132
1056.000	131
1057.000	132
1058.000	129
1059.000	127
1060.000	131
1061.000	132
1062.000	132
1063.000	131
1064.000	136
1065.000	136
1066.000	123
1067.000	132
1068.000	136
1069.000	132
1070.000	132
1071.000	131
1072.000	134
1073.000	137
1074.000	141
1075.000	139
1076.000	133
1077.000	137
1078.000	134
1079.000	137
1080.000	133
1081.000	140
1082.000	134
1083.000	135
1084.000	139
1085.000	136
1086.000	136
1087.000	137
1088.000	139
1089.000	131
1090.000	134
1091.000	139
1092.000	145
1093.000	143
1094.000	141
1095.000	136
1096.000	146
1097.000	146
1098.000	142
1099.000	156
1100.000	147
1101.000	156
1102.000	152
1103.000	154
1104.000	150
1105.000	148
1106.000	143
1107.000	145
1108.000	139
1109.000	145
1110.000	141
1111.000	136
1112.000	141
1113.000	135
1114.000	142
1115.000	141
1116.000	138
1117.000	138
1118.000	141
1119.000	137
1120.000	138
1121.000	130
1122.000	138
1123.000	136
1124.000	134
1125.000	138
1126.000	136
1127.000	142
1128.000	144
1129.000	141
1130.000	146
1131.000	145
1132.000	141
1133.000	147
1134.000	143
1135.000	146
1136.000	138
1137.000	136
1138.000	141
1139.000	144
1140.000	142
1141.000	135
1142.000	136
1143.000	134
1144.000	141
1145.000	145
1146.000	143
1147.000	142
1148.000	145
1149.000	144
1150.000	144
1151.000	149
1152.000	145
1153.000	147
1154.000	148
1155.000	142
1156.000	146
1157.000	146
1158.000	148
1159.000	150
1160.000	158
1161.000	148
1162.000	153
1163.000	155
1164.000	153
1165.000	149
1166.000	152
1167.000	151
1168.000	148
1169.000	148
1170.000	145
1171.000	151
1172.000	147
1173.000	149
1174.000	153
1175.000	138
1176.000	145
1177.000	137
1178.000	144
1179.000	142
1180.000	145
1181.000	142
1182.000	135
1183.000	139
1184.000	141
1185.000	139
1186.000	143
1187.000	135
1188.000	137
1189.000	140
1190.000	132
1191.000	139
1192.000	140
1193.000	137
1194.000	142
1195.000	142
1196.000	138
1197.000	139
1198.000	147
1199.000	136
1200.000	141
1201.000	141
1202.000	143
1203.000	142
1204.000	133
1205.000	140
1206.000	140
1207.000	142
1208.000	143
1209.000	143
1210.000	136
1211.000	143
1212.000	147
1213.000	140
1214.000	137
1215.000	143
1216.000	149
1217.000	145
1218.000	141
1219.000	149
1220.000	147
1221.000	143
1222.000	141
1223.000	149
1224.000	145
1225.000	138
1226.000	145
1227.000	146
1228.000	150
1229.000	142
1230.000	148
1231.000	152
1232.000	151
1233.000	151
1234.000	152
1235.000	146
1236.000	148
1237.000	148
1238.000	149
1239.000	149
1240.000	150
1241.000	152
1242.000	155
1243.000	153
1244.000	151
1245.000	146
1246.000	149
1247.000	154
1248.000	159
1249.000	153
1250.000	152
1251.000	152
1252.000	152
1253.000	147
1254.000	152
1255.000	148
1256.000	152
1257.000	151
1258.000	146
1259.000	142
1260.000	155
1261.000	148
1262.000	150
1263.000	146
1264.000	146
1265.000	153
1266.000	156
1267.000	152
1268.000	154
1269.000	146
1270.000	151
1271.000	150
1272.000	153
1273.000	146
1274.000	156
1275.000	149
1276.000	157
1277.000	156
1278.000	149
1279.000	144
1280.000	146
1281.000	153
1282.000	146
1283.000	154
1284.000	145
1285.000	153
1286.000	159
1287.000	150
1288.000	152
1289.000	159
1290.000	163
1291.000	156
1292.000	164
1293.000	172
1294.000	169
1295.000	165
1296.000	172
1297.000	171
1298.000	175
1299.000	175
1300.000	177
1301.000	175
1302.000	172
1303.000	176
1304.000	180
1305.000	184
1306.000	178
1307.000	177
1308.000	171
1309.000	179
1310.000	177
1311.000	172
1312.000	169
1313.000	167
1314.000	169
1315.000	164
1316.000	166
1317.000	163
1318.000	159
1319.000	163
1320.000	156
1321.000	161
1322.000	169
1323.000	156
1324.000	155
1325.000	159
1326.000	164
1327.000	157
1328.000	154
1329.000	159
1330.000	155
1331.000	158
1332.000	161
1333.000	152
1334.000	153
1335.000	151
1336.000	156
1337.000	155
1338.000	155
1339.000	159
1340.000	154
1341.000	155
1342.000	154
1343.000	162
1344.000	155
1345.000	157
1346.000	158
1347.000	156
1348.000	146
1349.000	165
1350.000	165
1351.000	157
1352.000	160
1353.000	157
1354.000	157
1355.000	171
1356.000	166
1357.000	167
1358.000	181
1359.000	181
1360.000	189
1361.000	198
1362.000	204
1363.000	218
1364.000	225
1365.000	255
1366.000	275
1367.000	286
1368.000	315
1369.000	337
1370.000	361
1371.000	387
1372.000	411
1373.000	434
1374.000	450
1375.000	481
1376.000	495
1377.000	515
1378.000	538
1379.000	529
1380.000	525
1381.000	531
1382.000	508
1383.000	497
1384.000	485
1385.000	472
1386.000	445
1387.000	429
1388.000	396
1389.000	371
1390.000	341
1391.000	314
1392.000	298
1393.000	276
1394.000	252
1395.000	246
1396.000	221
1397.000	207
1398.000	192
1399.000	181
1400.000	176
1401.000	165
1402.000	173
1403.000	163
1404.000	161
1405.000	161
1406.000	158
1407.000	155
1408.000	160
1409.000	153
1410.000	149
1411.000	148
1412.000	161
1413.000	161
1414.000	159
1415.000	147
1416.000	154
1417.000	153
1418.000	152
1419.000	152
1420.000	154
1421.000	149
1422.000	153
1423.000	159
1424.000	152
1425.000	153
1426.000	151
1427.000	155
1428.000	150
1429.000	156
1430.000	149
1431.000	154
1432.000	157
1433.000	147
1434.000	162
1435.000	155
1436.000	159
1437.000	152
1438.000	152
1439.000	148
1440.000	159
1441.000	159
1442.000	160
1443.000	158
1444.000	159
1445.000	161
1446.000	153
1447.000	160
1448.000	156
1449.000	159
1450.000	167
1451.000	168
1452.000	166
1453.000	161
1454.000	173
1455.000	164
1456.000	162
1457.000	165
1458.000	165
1459.000	172
1460.000	169
1461.000	161
1462.000	168
1463.000	161
1464.000	160
1465.000	168
1466.000	163
1467.000	173
1468.000	165
1469.000	163
1470.000	156
1471.000	175
1472.000	161
1473.000	159
1474.000	161
1475.000	154
1476.000	166
1477.000	154
1478.000	159
1479.000	159
1480.000	161
1481.000	163
1482.000	159
1483.000	161
1484.000	157
1485.000	159
1486.000	166
1487.000	163
1488.000	155
1489.000	153
1490.000	167
1491.000	163
1492.000	159
1493.000	164
1494.000	161
1495.000	163
1496.000	161
1497.000	162
1498.000	163
1499.000	164
1500.000	162
1501.000	156
1502.000	167
1503.000	159
1504.000	162
1505.000	162
1506.000	166
1507.000	165
1508.000	172
1509.000	169
1510.000	171
1511.000	156
1512.000	167
1513.000	172
1514.000	168
1515.000	171
1516.000	169
1517.000	168
1518.000	178
1519.000	174
1520.000	174
1521.000	183
1522.000	188
1523.000	191
1524.000	185
1525.000	198
1526.000	199
1527.000	203
1528.000	206
1529.000	206
1530.000	216
1531.000	222
1532.000	220
1533.000	234
1534.000	240
1535.000	250
1536.000	246
1537.000	250
1538.000	257
1539.000	265
1540.000	268
1541.000	269
1542.000	277
1543.000	273
1544.000	279
1545.000	276
1546.000	277
1547.000	265
1548.000	259
1549.000	263
1550.000	258
1551.000	253
1552.000	254
1553.000	246
1554.000	242
1555.000	241
1556.000	238
1557.000	232
1558.000	235
1559.000	224
1560.000	237
1561.000	243
1562.000	233
1563.000	250
1564.000	239
1565.000	235
1566.000	246
1567.000	257
1568.000	259
1569.000	260
1570.000	276
1571.000	268
1572.000	280
1573.000	291
1574.000	295
1575.000	297
1576.000	307
1577.000	307
1578.000	314
1579.000	322
1580.000	332
1581.000	342
1582.000	341
1583.000	360
1584.000	373
1585.000	383
1586.000	391
1587.000	398
1588.000	400
1589.000	406
1590.000	430
1591.000	444
1592.000	462
1593.000	447
1594.000	470
1595.000	493
1596.000	490
1597.000	494
1598.000	503
1599.000	520
1600.000	520
1601.000	523
1602.000	524
1603.000	540
1604.000	546
1605.000	531
1606.000	556
1607.000	556
1608.000	563
1609.000	542
1610.000	546
1611.000	557
1612.000	547
1613.000	541
1614.000	546
1615.000	545
1616.000	528
1617.000	533
1618.000	519
1619.000	513
1620.000	509
1621.000	505
1622.000	488
1623.000	478
1624.000	477
1625.000	460
1626.000	448
1627.000	441
1628.000	437
1629.000	421
1630.000	413
1631.000	396
1632.000	397
1633.000	382
1634.000	373
1635.000	366
1636.000	355
1637.000	338
1638.000	334
1639.000	323
1640.000	312
1641.000	309
1642.000	298
1643.000	294
1644.000	284
1645.000	268
1646.000	268
1647.000	258
1648.000	244
1649.000	256
1650.000	243
1651.000	237
1652.000	234
1653.000	218
1654.000	223
1655.000	216
1656.000	213
1657.000	209
1658.000	194
1659.000	196
1660.000	188
1661.000	190
1662.000	191
1663.000	185
1664.000	186
1665.000	184
1666.000	185
1667.000	180
1668.000	171
1669.000	175
1670.000	176
1671.000	171
1672.000	175
1673.000	171
1674.000	177
1675.000	180
1676.000	183
1677.000	184
1678.000	186
1679.000	202
1680.000	205
1681.000	206
1682.000	227
1683.000	228
1684.000	247
1685.000	268
1686.000	275
1687.000	293
1688.000	314
1689.000	337
1690.000	355
1691.000	364
1692.000	382
1693.000	403
1694.000	431
1695.000	440
1696.000	449
1697.000	480
1698.000	478
1699.000	504
1700.000	507
1701.000	502
1702.000	511
1703.000	494
1704.000	497
1705.000	490
1706.000	485
1707.000	456
1708.000	455
1709.000	419
1710.000	403
1711.000	371
1712.000	347
1713.000	343
1714.000	312
1715.000	290
1716.000	277
1717.000	252
1718.000	239
1719.000	216
1720.000	198
1721.000	191
1722.000	176
1723.000	173
1724.000	152
1725.000	156
1726.000	149
1727.000	145
1728.000	136
1729.000	133
1730.000	142
1731.000	142
1732.000	140
1733.000	140
1734.000	136
1735.000	131
1736.000	129
1737.000	137
1738.000	134
1739.000	130
1740.000	132
1741.000	133
1742.000	129
1743.000	133
1744.000	135
1745.000	139
1746.000	129
1747.000	136
1748.000	133
1749.000	144
1750.000	142
1751.000	141
1752.000	130
1753.000	133
1754.000	142
1755.000	144
1756.000	129
1757.000	148
1758.000	139
1759.000	134
1760.000	138
1761.000	143
1762.000	144
1763.000	145
1764.000	143
1765.000	136
1766.000	143
1767.000	145
1768.000	155
1769.000	152
1770.000	154
1771.000	154
1772.000	159
1773.000	158
1774.000	161
1775.000	163
1776.000	155
1777.000	165
1778.000	166
1779.000	162
1780.000	168
1781.000	172
1782.000	170
1783.000	173
1784.000	174
1785.000	176
1786.000	173
1787.000	182
1788.000	173
1789.000	181
1790.000	176
1791.000	177
1792.000	177
1793.000	178
1794.000	183
1795.000	186
1796.000	175
1797.000	179
1798.000	174
1799.000	171
1800.000	179
1801.000	181
1802.000	172
1803.000	176
1804.000	176
1805.000	177
1806.000	170
1807.000	165
1808.000	163
1809.000	155
1810.000	173
1811.000	163
1812.000	165
1813.000	157
1814.000	156
1815.000	161
1816.000	149
1817.000	150
1818.000	148
1819.000	143
1820.000	145
1821.000	142
1822.000	144
1823.000	136
1824.000	135
1825.000	136
1826.000	139
1827.000	132
1828.000	125
1829.000	126
1830.000	120
1831.000	120
1832.000	126
1833.000	117
1834.000	117
1835.000	117
1836.000	109
1837.000	112
1838.000	110
1839.000	114
1840.000	108
1841.000	103
1842.000	103
1843.000	109
1844.000	100
1845.000	96
1846.000	100
1847.000	104
1848.000	94
1849.000	93
1850.000	97
1851.000	93
1852.000	86
1853.000	95
1854.000	93
1855.000	89
1856.000	87
1857.000	90
1858.000	85
1859.000	84
1860.000	84
1861.000	83
1862.000	80
1863.000	82
1864.000	81
1865.000	78
1866.000	83
1867.000	76
1868.000	81
1869.000	81
1870.000	77
1871.000	74
1872.000	75
1873.000	78
1874.000	75
1875.000	74
1876.000	78
1877.000	73
1878.000	71
1879.000	68
1880.000	72
1881.000	71
1882.000	72
1883.000	73
1884.000	72
1885.000	71
1886.000	73
1887.000	75
1888.000	67
1889.000	71
1890.000	69
1891.000	73
1892.000	77
1893.000	76
1894.000	80
1895.000	77
1896.000	83
1897.000	84
1898.000	85
1899.000	89
1900.000	93
1901.000	91
1902.000	96
1903.000	99
1904.000	101
1905.000	106
1906.000	106
1907.000	112
1908.000	110
1909.000	107
1910.000	116
1911.000	118
1912.000	119
1913.000	116
1914.000	104
1915.000	107
1916.000	102
1917.000	106
1918.000	98
1919.000	98
1920.000	100
1921.000	90
1922.000	91
1923.000	89
1924.000	79
1925.000	79
1926.000	75
1927.000	74
1928.000	77
1929.000	72
1930.000	69
1931.000	65
1932.000	65
1933.000	63
1934.000	68
1935.000	63
1936.000	60
1937.000	66
1938.000	62
1939.000	60
1940.000	67
1941.000	61
1942.000	64
1943.000	64
1944.000	59
1945.000	59
1946.000	65
1947.000	61
1948.000	62
1949.000	62
1950.000	57
1951.000	61
1952.000	59
1953.000	54
1954.000	59
1955.000	55
1956.000	56
1957.000	53
1958.000	56
1959.000	54
1960.000	48
1961.000	52
1962.000	52
1963.000	50
1964.000	50
1965.000	52
1966.000	49
1967.000	47
1968.000	50
1969.000	50
1970.000	48
1971.000	51
1972.000	51
1973.000	50
1974.000	46
1975.000	47
1976.000	50
1977.000	48
1978.000	45
1979.000	46
1980.000	52
1981.000	48
1982.000	48
1983.000	49
1984.000	49
1985.000	50
1986.000	44
1987.000	49
1988.000	49
1989.000	47
1990.000	48
1991.000	48
1992.000	48
1993.000	47
1994.000	44
1995.000	47
1996.000	42
1997.000	48
1998.000	44
1999.000	49
2000.000	46
2001.000	43
2002.000	45
2003.000	50
2004.000	47
2005.000	45
2006.000	48
2007.000	49
2008.000	44
2009.000	47
2010.000	46
2011.000	47
2012.000	44
2013.000	43
2014.000	44
2015.000	49
2016.000	42
2017.000	48
2018.000	45
2019.000	47
2020.000	45
2021.000	47
2022.000	43
2023.000	45
2024.000	48
2025.000	45
2026.000	44
2027.000	44
2028.000	46
2029.000	44
2030.000	44
2031.000	47
2032.000	48
2033.000	44
2034.000	47
2035.000	43
2036.000	46
2037.000	42
2038.000	43
2039.000	45
2040.000	42
2041.000	46
2042.000	41
2043.000	42
2044.000	44
2045.000	41
2046.000	46
2047.000	41
2048.000	0
