Date:	23-Sep-20		Time:	11:32 PM		Version no:	0.00		Project name:	55		Sample name:	222		Section name:	section		Position	0.000000	mm	E0	0.000000	keV	E1	1.000000	keV/channel	sample surface	2.000000	cm	Tube anode:	Mo		Tube voltage:	30	kV	Tube current:	30	mA	gain	15		std. database			resultfile	result		matrix element	11		sample thickness	1.000000		air passage	0.560000	cm	comments	not in position		peaking_time	0.300000	m-sec	trigger_threshold	40.000000	V	mca_bin_width	2.000000	no:	number_mca_channels	2048.000000	no:	gap_time	2048.000000	m-sec	trigger_peaking_time	2048.000000	m-sec	GAINDAC	400		HIGHGAIN	400		TAURC	400		RCTAU	400		RCTAUFRAC	400		livetime	13.334824	seconds	runtime	15.000351	seconds	input_count_rate	47769.585089	cps	output_count_rate	42465.604889	cps	triggers	704307	seconds	events_in_run	618783	seconds	channel	content		1.000	0
2.000	0
3.000	0
4.000	0
5.000	0
6.000	0
7.000	0
8.000	0
9.000	0
10.000	0
11.000	0
12.000	0
13.000	0
14.000	0
15.000	0
16.000	0
17.000	0
18.000	0
19.000	0
20.000	0
21.000	0
22.000	0
23.000	0
24.000	0
25.000	0
26.000	0
27.000	0
28.000	0
29.000	0
30.000	0
31.000	1
32.000	0
33.000	0
34.000	0
35.000	0
36.000	0
37.000	0
38.000	0
39.000	0
40.000	0
41.000	0
42.000	0
43.000	0
44.000	0
45.000	1
46.000	0
47.000	1
48.000	1
49.000	1
50.000	1
51.000	1
52.000	2
53.000	1
54.000	3
55.000	4
56.000	7
57.000	8
58.000	12
59.000	19
60.000	24
61.000	27
62.000	31
63.000	29
64.000	31
65.000	29
66.000	28
67.000	26
68.000	25
69.000	27
70.000	25
71.000	24
72.000	25
73.000	26
74.000	25
75.000	23
76.000	24
77.000	23
78.000	25
79.000	24
80.000	26
81.000	22
82.000	24
83.000	25
84.000	26
85.000	26
86.000	26
87.000	24
88.000	29
89.000	27
90.000	24
91.000	21
92.000	21
93.000	22
94.000	22
95.000	23
96.000	21
97.000	23
98.000	24
99.000	19
100.000	21
101.000	17
102.000	23
103.000	22
104.000	18
105.000	20
106.000	21
107.000	20
108.000	21
109.000	20
110.000	20
111.000	19
112.000	19
113.000	18
114.000	18
115.000	18
116.000	18
117.000	17
118.000	17
119.000	20
120.000	17
121.000	19
122.000	16
123.000	17
124.000	17
125.000	17
126.000	17
127.000	17
128.000	17
129.000	15
130.000	16
131.000	15
132.000	15
133.000	16
134.000	15
135.000	16
136.000	14
137.000	16
138.000	17
139.000	15
140.000	18
141.000	18
142.000	23
143.000	22
144.000	25
145.000	25
146.000	23
147.000	23
148.000	21
149.000	19
150.000	18
151.000	14
152.000	17
153.000	17
154.000	14
155.000	14
156.000	13
157.000	15
158.000	13
159.000	12
160.000	13
161.000	14
162.000	16
163.000	12
164.000	15
165.000	18
166.000	17
167.000	18
168.000	23
169.000	23
170.000	27
171.000	24
172.000	24
173.000	24
174.000	21
175.000	19
176.000	23
177.000	22
178.000	24
179.000	28
180.000	31
181.000	39
182.000	44
183.000	55
184.000	75
185.000	102
186.000	131
187.000	179
188.000	214
189.000	257
190.000	272
191.000	287
192.000	267
193.000	241
194.000	205
195.000	167
196.000	127
197.000	91
198.000	63
199.000	46
200.000	31
201.000	24
202.000	22
203.000	17
204.000	17
205.000	16
206.000	16
207.000	15
208.000	17
209.000	17
210.000	16
211.000	22
212.000	18
213.000	20
214.000	23
215.000	24
216.000	26
217.000	30
218.000	34
219.000	40
220.000	49
221.000	46
222.000	50
223.000	49
224.000	53
225.000	49
226.000	41
227.000	38
228.000	33
229.000	26
230.000	23
231.000	19
232.000	16
233.000	15
234.000	16
235.000	15
236.000	15
237.000	11
238.000	15
239.000	15
240.000	13
241.000	13
242.000	15
243.000	14
244.000	15
245.000	15
246.000	18
247.000	21
248.000	28
249.000	34
250.000	44
251.000	57
252.000	76
253.000	95
254.000	105
255.000	125
256.000	131
257.000	143
258.000	138
259.000	125
260.000	106
261.000	89
262.000	75
263.000	57
264.000	44
265.000	39
266.000	26
267.000	23
268.000	21
269.000	18
270.000	20
271.000	21
272.000	26
273.000	26
274.000	27
275.000	27
276.000	28
277.000	28
278.000	32
279.000	28
280.000	28
281.000	30
282.000	33
283.000	40
284.000	45
285.000	60
286.000	65
287.000	76
288.000	85
289.000	88
290.000	87
291.000	84
292.000	87
293.000	72
294.000	59
295.000	55
296.000	44
297.000	36
298.000	31
299.000	28
300.000	27
301.000	25
302.000	24
303.000	22
304.000	25
305.000	24
306.000	26
307.000	27
308.000	31
309.000	32
310.000	33
311.000	36
312.000	38
313.000	37
314.000	43
315.000	44
316.000	49
317.000	56
318.000	62
319.000	76
320.000	91
321.000	103
322.000	112
323.000	121
324.000	127
325.000	127
326.000	115
327.000	105
328.000	99
329.000	86
330.000	72
331.000	53
332.000	49
333.000	41
334.000	36
335.000	31
336.000	32
337.000	32
338.000	35
339.000	36
340.000	47
341.000	53
342.000	68
343.000	87
344.000	112
345.000	149
346.000	211
347.000	327
348.000	523
349.000	853
350.000	1331
351.000	2047
352.000	3185
353.000	4680
354.000	6617
355.000	9096
356.000	11970
357.000	14903
358.000	17906
359.000	20342
360.000	22298
361.000	23203
362.000	23067
363.000	21737
364.000	19786
365.000	17110
366.000	13994
367.000	11019
368.000	8324
369.000	5928
370.000	4082
371.000	2694
372.000	1720
373.000	1057
374.000	658
375.000	400
376.000	268
377.000	215
378.000	195
379.000	214
380.000	253
381.000	325
382.000	434
383.000	594
384.000	813
385.000	1081
386.000	1429
387.000	1795
388.000	2237
389.000	2625
390.000	3050
391.000	3335
392.000	3494
393.000	3545
394.000	3442
395.000	3168
396.000	2844
397.000	2426
398.000	1975
399.000	1561
400.000	1169
401.000	817
402.000	566
403.000	385
404.000	247
405.000	161
406.000	92
407.000	58
408.000	32
409.000	24
410.000	15
411.000	12
412.000	11
413.000	10
414.000	10
415.000	8
416.000	8
417.000	8
418.000	7
419.000	9
420.000	9
421.000	7
422.000	9
423.000	8
424.000	8
425.000	10
426.000	9
427.000	11
428.000	11
429.000	14
430.000	14
431.000	16
432.000	20
433.000	26
434.000	33
435.000	44
436.000	43
437.000	54
438.000	63
439.000	63
440.000	65
441.000	73
442.000	65
443.000	66
444.000	58
445.000	51
446.000	46
447.000	39
448.000	34
449.000	29
450.000	24
451.000	21
452.000	18
453.000	21
454.000	19
455.000	18
456.000	19
457.000	18
458.000	19
459.000	15
460.000	16
461.000	13
462.000	12
463.000	14
464.000	12
465.000	13
466.000	12
467.000	13
468.000	14
469.000	12
470.000	16
471.000	17
472.000	14
473.000	16
474.000	13
475.000	18
476.000	18
477.000	17
478.000	21
479.000	23
480.000	20
481.000	24
482.000	24
483.000	21
484.000	23
485.000	24
486.000	21
487.000	21
488.000	20
489.000	17
490.000	17
491.000	17
492.000	16
493.000	14
494.000	13
495.000	14
496.000	17
497.000	15
498.000	16
499.000	13
500.000	17
501.000	16
502.000	19
503.000	17
504.000	16
505.000	19
506.000	19
507.000	21
508.000	17
509.000	20
510.000	21
511.000	21
512.000	21
513.000	21
514.000	20
515.000	21
516.000	23
517.000	25
518.000	23
519.000	24
520.000	30
521.000	30
522.000	32
523.000	35
524.000	37
525.000	36
526.000	39
527.000	41
528.000	45
529.000	42
530.000	42
531.000	39
532.000	41
533.000	35
534.000	34
535.000	32
536.000	28
537.000	25
538.000	27
539.000	24
540.000	23
541.000	20
542.000	18
543.000	22
544.000	21
545.000	20
546.000	24
547.000	25
548.000	25
549.000	25
550.000	26
551.000	24
552.000	24
553.000	21
554.000	26
555.000	27
556.000	27
557.000	32
558.000	30
559.000	32
560.000	32
561.000	34
562.000	34
563.000	33
564.000	35
565.000	40
566.000	42
567.000	44
568.000	48
569.000	50
570.000	56
571.000	57
572.000	63
573.000	67
574.000	70
575.000	71
576.000	74
577.000	71
578.000	69
579.000	62
580.000	60
581.000	56
582.000	51
583.000	49
584.000	42
585.000	39
586.000	39
587.000	35
588.000	33
589.000	31
590.000	30
591.000	30
592.000	26
593.000	28
594.000	28
595.000	25
596.000	29
597.000	27
598.000	31
599.000	26
600.000	29
601.000	28
602.000	30
603.000	32
604.000	33
605.000	38
606.000	40
607.000	48
608.000	57
609.000	70
610.000	93
611.000	110
612.000	152
613.000	203
614.000	279
615.000	351
616.000	456
617.000	582
618.000	692
619.000	873
620.000	1028
621.000	1170
622.000	1319
623.000	1411
624.000	1514
625.000	1550
626.000	1529
627.000	1497
628.000	1387
629.000	1260
630.000	1109
631.000	965
632.000	791
633.000	666
634.000	545
635.000	407
636.000	327
637.000	241
638.000	185
639.000	148
640.000	114
641.000	101
642.000	75
643.000	69
644.000	63
645.000	61
646.000	54
647.000	51
648.000	53
649.000	54
650.000	51
651.000	53
652.000	52
653.000	52
654.000	56
655.000	52
656.000	54
657.000	52
658.000	51
659.000	54
660.000	52
661.000	53
662.000	59
663.000	63
664.000	58
665.000	58
666.000	63
667.000	59
668.000	65
669.000	66
670.000	70
671.000	71
672.000	73
673.000	81
674.000	79
675.000	93
676.000	98
677.000	103
678.000	118
679.000	131
680.000	146
681.000	170
682.000	191
683.000	205
684.000	230
685.000	252
686.000	273
687.000	304
688.000	308
689.000	306
690.000	305
691.000	297
692.000	273
693.000	261
694.000	236
695.000	212
696.000	195
697.000	172
698.000	150
699.000	133
700.000	108
701.000	89
702.000	87
703.000	80
704.000	74
705.000	67
706.000	69
707.000	65
708.000	62
709.000	62
710.000	64
711.000	65
712.000	69
713.000	69
714.000	72
715.000	71
716.000	81
717.000	84
718.000	87
719.000	88
720.000	93
721.000	89
722.000	97
723.000	92
724.000	95
725.000	105
726.000	98
727.000	97
728.000	96
729.000	97
730.000	90
731.000	87
732.000	85
733.000	87
734.000	88
735.000	82
736.000	82
737.000	75
738.000	76
739.000	77
740.000	76
741.000	72
742.000	72
743.000	74
744.000	71
745.000	71
746.000	72
747.000	76
748.000	77
749.000	74
750.000	84
751.000	75
752.000	78
753.000	73
754.000	78
755.000	80
756.000	72
757.000	73
758.000	78
759.000	75
760.000	77
761.000	81
762.000	79
763.000	81
764.000	82
765.000	77
766.000	82
767.000	78
768.000	82
769.000	86
770.000	88
771.000	85
772.000	89
773.000	93
774.000	94
775.000	93
776.000	97
777.000	101
778.000	101
779.000	105
780.000	108
781.000	112
782.000	121
783.000	119
784.000	120
785.000	123
786.000	131
787.000	132
788.000	140
789.000	136
790.000	143
791.000	142
792.000	142
793.000	156
794.000	142
795.000	157
796.000	151
797.000	152
798.000	151
799.000	147
800.000	160
801.000	157
802.000	162
803.000	159
804.000	166
805.000	170
806.000	175
807.000	176
808.000	185
809.000	200
810.000	213
811.000	220
812.000	247
813.000	272
814.000	275
815.000	291
816.000	306
817.000	329
818.000	326
819.000	326
820.000	332
821.000	331
822.000	310
823.000	292
824.000	279
825.000	268
826.000	250
827.000	231
828.000	218
829.000	197
830.000	184
831.000	167
832.000	159
833.000	139
834.000	146
835.000	128
836.000	126
837.000	126
838.000	125
839.000	130
840.000	128
841.000	123
842.000	134
843.000	126
844.000	127
845.000	125
846.000	126
847.000	128
848.000	133
849.000	129
850.000	124
851.000	131
852.000	128
853.000	127
854.000	119
855.000	125
856.000	121
857.000	123
858.000	127
859.000	121
860.000	124
861.000	124
862.000	121
863.000	119
864.000	126
865.000	122
866.000	126
867.000	121
868.000	121
869.000	124
870.000	116
871.000	116
872.000	122
873.000	118
874.000	125
875.000	118
876.000	112
877.000	125
878.000	122
879.000	119
880.000	114
881.000	118
882.000	124
883.000	125
884.000	120
885.000	125
886.000	120
887.000	123
888.000	126
889.000	129
890.000	125
891.000	128
892.000	125
893.000	128
894.000	130
895.000	125
896.000	138
897.000	136
898.000	140
899.000	146
900.000	151
901.000	147
902.000	162
903.000	146
904.000	157
905.000	163
906.000	161
907.000	157
908.000	168
909.000	178
910.000	166
911.000	171
912.000	169
913.000	171
914.000	174
915.000	175
916.000	181
917.000	176
918.000	180
919.000	188
920.000	178
921.000	188
922.000	190
923.000	189
924.000	188
925.000	189
926.000	202
927.000	195
928.000	195
929.000	196
930.000	202
931.000	211
932.000	215
933.000	217
934.000	230
935.000	228
936.000	244
937.000	244
938.000	244
939.000	260
940.000	268
941.000	270
942.000	270
943.000	273
944.000	279
945.000	269
946.000	273
947.000	267
948.000	265
949.000	260
950.000	240
951.000	230
952.000	227
953.000	212
954.000	209
955.000	202
956.000	198
957.000	193
958.000	190
959.000	189
960.000	180
961.000	183
962.000	185
963.000	176
964.000	195
965.000	187
966.000	186
967.000	192
968.000	195
969.000	197
970.000	194
971.000	196
972.000	194
973.000	196
974.000	186
975.000	184
976.000	184
977.000	176
978.000	182
979.000	179
980.000	171
981.000	170
982.000	167
983.000	164
984.000	155
985.000	155
986.000	157
987.000	151
988.000	149
989.000	153
990.000	156
991.000	150
992.000	140
993.000	142
994.000	138
995.000	146
996.000	143
997.000	140
998.000	147
999.000	144
1000.000	139
1001.000	140
1002.000	142
1003.000	133
1004.000	142
1005.000	145
1006.000	137
1007.000	140
1008.000	137
1009.000	144
1010.000	140
1011.000	140
1012.000	143
1013.000	136
1014.000	141
1015.000	148
1016.000	143
1017.000	139
1018.000	139
1019.000	147
1020.000	137
1021.000	142
1022.000	144
1023.000	140
1024.000	142
1025.000	141
1026.000	136
1027.000	142
1028.000	141
1029.000	148
1030.000	144
1031.000	143
1032.000	147
1033.000	139
1034.000	151
1035.000	144
1036.000	151
1037.000	149
1038.000	149
1039.000	149
1040.000	154
1041.000	151
1042.000	150
1043.000	153
1044.000	146
1045.000	159
1046.000	156
1047.000	148
1048.000	157
1049.000	147
1050.000	152
1051.000	164
1052.000	165
1053.000	159
1054.000	155
1055.000	162
1056.000	166
1057.000	161
1058.000	166
1059.000	161
1060.000	160
1061.000	165
1062.000	163
1063.000	167
1064.000	159
1065.000	166
1066.000	166
1067.000	155
1068.000	170
1069.000	166
1070.000	158
1071.000	166
1072.000	163
1073.000	170
1074.000	163
1075.000	163
1076.000	165
1077.000	165
1078.000	163
1079.000	163
1080.000	160
1081.000	164
1082.000	164
1083.000	156
1084.000	163
1085.000	160
1086.000	156
1087.000	164
1088.000	170
1089.000	167
1090.000	154
1091.000	163
1092.000	176
1093.000	168
1094.000	177
1095.000	175
1096.000	169
1097.000	170
1098.000	180
1099.000	181
1100.000	178
1101.000	183
1102.000	187
1103.000	171
1104.000	168
1105.000	183
1106.000	178
1107.000	169
1108.000	176
1109.000	174
1110.000	164
1111.000	166
1112.000	170
1113.000	170
1114.000	160
1115.000	169
1116.000	167
1117.000	164
1118.000	165
1119.000	162
1120.000	168
1121.000	161
1122.000	168
1123.000	160
1124.000	169
1125.000	157
1126.000	161
1127.000	168
1128.000	168
1129.000	161
1130.000	166
1131.000	164
1132.000	167
1133.000	168
1134.000	175
1135.000	169
1136.000	166
1137.000	174
1138.000	172
1139.000	176
1140.000	169
1141.000	170
1142.000	166
1143.000	171
1144.000	164
1145.000	172
1146.000	173
1147.000	177
1148.000	181
1149.000	178
1150.000	175
1151.000	169
1152.000	181
1153.000	179
1154.000	183
1155.000	191
1156.000	188
1157.000	179
1158.000	186
1159.000	195
1160.000	192
1161.000	198
1162.000	194
1163.000	190
1164.000	187
1165.000	189
1166.000	189
1167.000	182
1168.000	181
1169.000	182
1170.000	180
1171.000	178
1172.000	173
1173.000	175
1174.000	169
1175.000	171
1176.000	172
1177.000	163
1178.000	170
1179.000	160
1180.000	158
1181.000	175
1182.000	172
1183.000	167
1184.000	164
1185.000	160
1186.000	161
1187.000	170
1188.000	163
1189.000	154
1190.000	163
1191.000	168
1192.000	165
1193.000	170
1194.000	168
1195.000	167
1196.000	169
1197.000	165
1198.000	164
1199.000	169
1200.000	160
1201.000	169
1202.000	167
1203.000	172
1204.000	172
1205.000	163
1206.000	161
1207.000	170
1208.000	174
1209.000	172
1210.000	169
1211.000	166
1212.000	165
1213.000	169
1214.000	173
1215.000	173
1216.000	170
1217.000	178
1218.000	169
1219.000	165
1220.000	174
1221.000	179
1222.000	177
1223.000	174
1224.000	176
1225.000	176
1226.000	170
1227.000	172
1228.000	171
1229.000	172
1230.000	174
1231.000	174
1232.000	171
1233.000	170
1234.000	178
1235.000	176
1236.000	177
1237.000	174
1238.000	169
1239.000	172
1240.000	174
1241.000	172
1242.000	176
1243.000	181
1244.000	173
1245.000	179
1246.000	177
1247.000	177
1248.000	172
1249.000	172
1250.000	169
1251.000	172
1252.000	172
1253.000	174
1254.000	164
1255.000	165
1256.000	172
1257.000	172
1258.000	170
1259.000	175
1260.000	165
1261.000	168
1262.000	176
1263.000	172
1264.000	172
1265.000	171
1266.000	165
1267.000	165
1268.000	173
1269.000	170
1270.000	172
1271.000	168
1272.000	161
1273.000	170
1274.000	169
1275.000	175
1276.000	163
1277.000	175
1278.000	168
1279.000	163
1280.000	159
1281.000	169
1282.000	166
1283.000	169
1284.000	166
1285.000	173
1286.000	173
1287.000	175
1288.000	165
1289.000	168
1290.000	177
1291.000	185
1292.000	172
1293.000	173
1294.000	176
1295.000	173
1296.000	174
1297.000	181
1298.000	182
1299.000	176
1300.000	176
1301.000	185
1302.000	187
1303.000	183
1304.000	186
1305.000	181
1306.000	185
1307.000	170
1308.000	180
1309.000	181
1310.000	184
1311.000	174
1312.000	186
1313.000	175
1314.000	182
1315.000	179
1316.000	181
1317.000	178
1318.000	182
1319.000	180
1320.000	172
1321.000	180
1322.000	175
1323.000	176
1324.000	181
1325.000	177
1326.000	182
1327.000	180
1328.000	175
1329.000	180
1330.000	174
1331.000	167
1332.000	175
1333.000	180
1334.000	176
1335.000	178
1336.000	178
1337.000	175
1338.000	179
1339.000	175
1340.000	177
1341.000	173
1342.000	180
1343.000	178
1344.000	179
1345.000	184
1346.000	173
1347.000	180
1348.000	176
1349.000	177
1350.000	183
1351.000	185
1352.000	184
1353.000	198
1354.000	192
1355.000	196
1356.000	204
1357.000	218
1358.000	223
1359.000	233
1360.000	261
1361.000	280
1362.000	312
1363.000	342
1364.000	384
1365.000	426
1366.000	468
1367.000	506
1368.000	576
1369.000	624
1370.000	682
1371.000	742
1372.000	809
1373.000	856
1374.000	926
1375.000	985
1376.000	1014
1377.000	1034
1378.000	1075
1379.000	1094
1380.000	1086
1381.000	1083
1382.000	1072
1383.000	1029
1384.000	995
1385.000	926
1386.000	869
1387.000	819
1388.000	742
1389.000	680
1390.000	634
1391.000	566
1392.000	503
1393.000	458
1394.000	399
1395.000	371
1396.000	326
1397.000	304
1398.000	267
1399.000	241
1400.000	232
1401.000	223
1402.000	213
1403.000	190
1404.000	195
1405.000	184
1406.000	182
1407.000	185
1408.000	173
1409.000	175
1410.000	169
1411.000	176
1412.000	176
1413.000	178
1414.000	171
1415.000	171
1416.000	180
1417.000	173
1418.000	174
1419.000	165
1420.000	175
1421.000	168
1422.000	173
1423.000	170
1424.000	170
1425.000	173
1426.000	173
1427.000	169
1428.000	179
1429.000	168
1430.000	172
1431.000	167
1432.000	169
1433.000	174
1434.000	173
1435.000	173
1436.000	171
1437.000	171
1438.000	175
1439.000	181
1440.000	175
1441.000	187
1442.000	177
1443.000	176
1444.000	184
1445.000	173
1446.000	179
1447.000	173
1448.000	181
1449.000	178
1450.000	171
1451.000	185
1452.000	184
1453.000	186
1454.000	180
1455.000	182
1456.000	181
1457.000	177
1458.000	189
1459.000	180
1460.000	174
1461.000	180
1462.000	178
1463.000	185
1464.000	179
1465.000	184
1466.000	180
1467.000	181
1468.000	182
1469.000	180
1470.000	184
1471.000	177
1472.000	180
1473.000	178
1474.000	173
1475.000	181
1476.000	171
1477.000	175
1478.000	180
1479.000	179
1480.000	179
1481.000	182
1482.000	184
1483.000	171
1484.000	184
1485.000	180
1486.000	178
1487.000	179
1488.000	184
1489.000	172
1490.000	183
1491.000	187
1492.000	182
1493.000	181
1494.000	178
1495.000	178
1496.000	188
1497.000	185
1498.000	180
1499.000	179
1500.000	177
1501.000	177
1502.000	185
1503.000	188
1504.000	189
1505.000	188
1506.000	187
1507.000	185
1508.000	187
1509.000	187
1510.000	183
1511.000	191
1512.000	189
1513.000	184
1514.000	186
1515.000	189
1516.000	179
1517.000	191
1518.000	195
1519.000	194
1520.000	193
1521.000	196
1522.000	202
1523.000	201
1524.000	201
1525.000	204
1526.000	219
1527.000	213
1528.000	219
1529.000	230
1530.000	240
1531.000	241
1532.000	252
1533.000	280
1534.000	279
1535.000	293
1536.000	302
1537.000	309
1538.000	313
1539.000	340
1540.000	345
1541.000	349
1542.000	354
1543.000	357
1544.000	357
1545.000	358
1546.000	361
1547.000	353
1548.000	353
1549.000	347
1550.000	340
1551.000	334
1552.000	325
1553.000	319
1554.000	306
1555.000	296
1556.000	289
1557.000	292
1558.000	281
1559.000	284
1560.000	277
1561.000	278
1562.000	283
1563.000	270
1564.000	279
1565.000	282
1566.000	288
1567.000	287
1568.000	297
1569.000	298
1570.000	296
1571.000	319
1572.000	312
1573.000	327
1574.000	325
1575.000	332
1576.000	343
1577.000	357
1578.000	352
1579.000	365
1580.000	370
1581.000	388
1582.000	391
1583.000	405
1584.000	421
1585.000	427
1586.000	444
1587.000	439
1588.000	453
1589.000	467
1590.000	482
1591.000	497
1592.000	506
1593.000	514
1594.000	524
1595.000	536
1596.000	546
1597.000	550
1598.000	555
1599.000	565
1600.000	569
1601.000	587
1602.000	592
1603.000	596
1604.000	601
1605.000	613
1606.000	609
1607.000	598
1608.000	621
1609.000	611
1610.000	614
1611.000	605
1612.000	606
1613.000	583
1614.000	587
1615.000	588
1616.000	567
1617.000	577
1618.000	554
1619.000	553
1620.000	535
1621.000	538
1622.000	521
1623.000	511
1624.000	491
1625.000	487
1626.000	469
1627.000	462
1628.000	454
1629.000	437
1630.000	431
1631.000	420
1632.000	399
1633.000	397
1634.000	378
1635.000	376
1636.000	357
1637.000	352
1638.000	340
1639.000	327
1640.000	327
1641.000	318
1642.000	302
1643.000	287
1644.000	277
1645.000	275
1646.000	268
1647.000	257
1648.000	253
1649.000	253
1650.000	246
1651.000	239
1652.000	232
1653.000	234
1654.000	220
1655.000	216
1656.000	207
1657.000	208
1658.000	211
1659.000	201
1660.000	200
1661.000	201
1662.000	189
1663.000	190
1664.000	189
1665.000	184
1666.000	181
1667.000	179
1668.000	185
1669.000	178
1670.000	183
1671.000	174
1672.000	176
1673.000	180
1674.000	177
1675.000	185
1676.000	184
1677.000	189
1678.000	188
1679.000	205
1680.000	217
1681.000	219
1682.000	239
1683.000	239
1684.000	266
1685.000	276
1686.000	290
1687.000	313
1688.000	321
1689.000	354
1690.000	383
1691.000	395
1692.000	414
1693.000	444
1694.000	481
1695.000	488
1696.000	514
1697.000	517
1698.000	541
1699.000	547
1700.000	547
1701.000	555
1702.000	560
1703.000	543
1704.000	543
1705.000	537
1706.000	516
1707.000	502
1708.000	496
1709.000	468
1710.000	431
1711.000	405
1712.000	386
1713.000	360
1714.000	331
1715.000	318
1716.000	296
1717.000	263
1718.000	253
1719.000	236
1720.000	209
1721.000	198
1722.000	190
1723.000	184
1724.000	171
1725.000	166
1726.000	159
1727.000	154
1728.000	149
1729.000	144
1730.000	149
1731.000	148
1732.000	146
1733.000	139
1734.000	139
1735.000	137
1736.000	138
1737.000	136
1738.000	138
1739.000	137
1740.000	143
1741.000	139
1742.000	136
1743.000	145
1744.000	141
1745.000	143
1746.000	146
1747.000	145
1748.000	151
1749.000	143
1750.000	142
1751.000	148
1752.000	152
1753.000	146
1754.000	149
1755.000	149
1756.000	153
1757.000	154
1758.000	152
1759.000	148
1760.000	145
1761.000	153
1762.000	159
1763.000	156
1764.000	155
1765.000	157
1766.000	157
1767.000	154
1768.000	160
1769.000	168
1770.000	168
1771.000	168
1772.000	169
1773.000	171
1774.000	179
1775.000	175
1776.000	177
1777.000	172
1778.000	184
1779.000	181
1780.000	184
1781.000	184
1782.000	192
1783.000	185
1784.000	188
1785.000	186
1786.000	188
1787.000	191
1788.000	196
1789.000	194
1790.000	192
1791.000	192
1792.000	188
1793.000	196
1794.000	191
1795.000	194
1796.000	193
1797.000	192
1798.000	190
1799.000	186
1800.000	186
1801.000	189
1802.000	186
1803.000	185
1804.000	179
1805.000	185
1806.000	177
1807.000	168
1808.000	175
1809.000	173
1810.000	176
1811.000	175
1812.000	174
1813.000	168
1814.000	167
1815.000	164
1816.000	167
1817.000	160
1818.000	156
1819.000	153
1820.000	151
1821.000	141
1822.000	146
1823.000	150
1824.000	141
1825.000	138
1826.000	138
1827.000	140
1828.000	135
1829.000	130
1830.000	132
1831.000	126
1832.000	117
1833.000	123
1834.000	125
1835.000	113
1836.000	121
1837.000	116
1838.000	108
1839.000	112
1840.000	114
1841.000	108
1842.000	110
1843.000	107
1844.000	101
1845.000	105
1846.000	103
1847.000	103
1848.000	100
1849.000	95
1850.000	92
1851.000	95
1852.000	90
1853.000	93
1854.000	95
1855.000	96
1856.000	95
1857.000	93
1858.000	84
1859.000	87
1860.000	82
1861.000	92
1862.000	82
1863.000	86
1864.000	82
1865.000	83
1866.000	79
1867.000	74
1868.000	81
1869.000	83
1870.000	78
1871.000	81
1872.000	78
1873.000	78
1874.000	78
1875.000	73
1876.000	79
1877.000	76
1878.000	74
1879.000	76
1880.000	73
1881.000	73
1882.000	72
1883.000	72
1884.000	67
1885.000	72
1886.000	68
1887.000	72
1888.000	72
1889.000	71
1890.000	75
1891.000	76
1892.000	73
1893.000	77
1894.000	88
1895.000	85
1896.000	88
1897.000	90
1898.000	91
1899.000	97
1900.000	96
1901.000	94
1902.000	103
1903.000	108
1904.000	109
1905.000	105
1906.000	117
1907.000	115
1908.000	117
1909.000	117
1910.000	127
1911.000	116
1912.000	125
1913.000	131
1914.000	122
1915.000	114
1916.000	117
1917.000	105
1918.000	108
1919.000	106
1920.000	103
1921.000	98
1922.000	88
1923.000	91
1924.000	86
1925.000	81
1926.000	83
1927.000	80
1928.000	76
1929.000	75
1930.000	74
1931.000	72
1932.000	69
1933.000	64
1934.000	64
1935.000	65
1936.000	63
1937.000	71
1938.000	67
1939.000	66
1940.000	64
1941.000	64
1942.000	68
1943.000	67
1944.000	69
1945.000	68
1946.000	67
1947.000	63
1948.000	65
1949.000	65
1950.000	63
1951.000	63
1952.000	61
1953.000	58
1954.000	58
1955.000	60
1956.000	60
1957.000	55
1958.000	56
1959.000	56
1960.000	55
1961.000	54
1962.000	53
1963.000	55
1964.000	49
1965.000	53
1966.000	53
1967.000	52
1968.000	51
1969.000	55
1970.000	45
1971.000	51
1972.000	52
1973.000	49
1974.000	56
1975.000	53
1976.000	49
1977.000	51
1978.000	50
1979.000	51
1980.000	57
1981.000	48
1982.000	47
1983.000	52
1984.000	48
1985.000	52
1986.000	52
1987.000	48
1988.000	50
1989.000	49
1990.000	51
1991.000	49
1992.000	49
1993.000	49
1994.000	51
1995.000	50
1996.000	54
1997.000	51
1998.000	49
1999.000	48
2000.000	46
2001.000	49
2002.000	47
2003.000	50
2004.000	50
2005.000	48
2006.000	46
2007.000	49
2008.000	46
2009.000	48
2010.000	48
2011.000	49
2012.000	51
2013.000	46
2014.000	45
2015.000	50
2016.000	49
2017.000	45
2018.000	46
2019.000	48
2020.000	46
2021.000	48
2022.000	46
2023.000	43
2024.000	45
2025.000	46
2026.000	46
2027.000	44
2028.000	50
2029.000	50
2030.000	46
2031.000	43
2032.000	46
2033.000	46
2034.000	48
2035.000	46
2036.000	49
2037.000	45
2038.000	44
2039.000	47
2040.000	47
2041.000	46
2042.000	45
2043.000	48
2044.000	45
2045.000	47
2046.000	46
2047.000	43
2048.000	0
