Date:	17-Sep-20		Time:	11:47 PM		Version no:	0.00		Project name:	55		Sample name:	222		Section name:	section		Position	0.000000	mm	E0	0.000000	keV	E1	1.000000	keV/channel	sample surface	2.000000	cm	Tube anode:	Mo		Tube voltage:	30	kV	Tube current:	30	mA	gain	15		std. database			resultfile	result		matrix element	11		sample thickness	1.000000		air passage	0.560000	cm	comments	not in position		peaking_time	0.300000	m-sec	trigger_threshold	40.000000	V	mca_bin_width	2.000000	no:	number_mca_channels	2048.000000	no:	gap_time	2048.000000	m-sec	trigger_peaking_time	2048.000000	m-sec	GAINDAC	400		HIGHGAIN	400		TAURC	400		RCTAU	400		RCTAUFRAC	400		livetime	13.014294	seconds	runtime	15.000232	seconds	input_count_rate	80431.410221	cps	output_count_rate	69782.785033	cps	triggers	1173264	seconds	events_in_run	1020480	seconds	channel	content		1.000	0
2.000	0
3.000	0
4.000	0
5.000	0
6.000	0
7.000	0
8.000	0
9.000	0
10.000	0
11.000	0
12.000	0
13.000	0
14.000	0
15.000	0
16.000	0
17.000	0
18.000	0
19.000	0
20.000	0
21.000	0
22.000	0
23.000	0
24.000	0
25.000	0
26.000	0
27.000	0
28.000	0
29.000	0
30.000	0
31.000	0
32.000	0
33.000	1
34.000	0
35.000	0
36.000	1
37.000	0
38.000	1
39.000	1
40.000	0
41.000	1
42.000	0
43.000	0
44.000	0
45.000	0
46.000	1
47.000	0
48.000	0
49.000	1
50.000	1
51.000	1
52.000	1
53.000	3
54.000	4
55.000	5
56.000	8
57.000	10
58.000	12
59.000	20
60.000	22
61.000	27
62.000	29
63.000	30
64.000	30
65.000	30
66.000	27
67.000	29
68.000	26
69.000	26
70.000	27
71.000	26
72.000	24
73.000	25
74.000	24
75.000	25
76.000	23
77.000	23
78.000	22
79.000	22
80.000	24
81.000	26
82.000	24
83.000	26
84.000	23
85.000	27
86.000	27
87.000	21
88.000	23
89.000	22
90.000	22
91.000	22
92.000	20
93.000	19
94.000	20
95.000	22
96.000	20
97.000	20
98.000	23
99.000	20
100.000	22
101.000	21
102.000	22
103.000	19
104.000	23
105.000	19
106.000	22
107.000	20
108.000	21
109.000	20
110.000	18
111.000	17
112.000	16
113.000	19
114.000	18
115.000	17
116.000	17
117.000	18
118.000	17
119.000	17
120.000	17
121.000	18
122.000	18
123.000	16
124.000	15
125.000	17
126.000	15
127.000	17
128.000	15
129.000	16
130.000	18
131.000	17
132.000	17
133.000	15
134.000	16
135.000	15
136.000	15
137.000	16
138.000	15
139.000	17
140.000	17
141.000	20
142.000	22
143.000	23
144.000	23
145.000	25
146.000	28
147.000	27
148.000	25
149.000	22
150.000	19
151.000	22
152.000	21
153.000	19
154.000	17
155.000	16
156.000	15
157.000	15
158.000	15
159.000	13
160.000	12
161.000	18
162.000	16
163.000	17
164.000	21
165.000	28
166.000	33
167.000	41
168.000	47
169.000	54
170.000	61
171.000	62
172.000	57
173.000	53
174.000	47
175.000	42
176.000	34
177.000	29
178.000	30
179.000	30
180.000	31
181.000	32
182.000	40
183.000	56
184.000	65
185.000	87
186.000	112
187.000	146
188.000	184
189.000	209
190.000	230
191.000	234
192.000	230
193.000	203
194.000	182
195.000	140
196.000	107
197.000	78
198.000	56
199.000	42
200.000	30
201.000	23
202.000	21
203.000	17
204.000	16
205.000	18
206.000	15
207.000	18
208.000	16
209.000	16
210.000	19
211.000	17
212.000	15
213.000	20
214.000	19
215.000	21
216.000	25
217.000	26
218.000	31
219.000	38
220.000	41
221.000	45
222.000	44
223.000	47
224.000	48
225.000	43
226.000	41
227.000	36
228.000	29
229.000	28
230.000	24
231.000	19
232.000	17
233.000	16
234.000	15
235.000	15
236.000	15
237.000	14
238.000	13
239.000	13
240.000	14
241.000	14
242.000	16
243.000	13
244.000	15
245.000	18
246.000	18
247.000	23
248.000	27
249.000	36
250.000	48
251.000	63
252.000	80
253.000	108
254.000	123
255.000	143
256.000	150
257.000	156
258.000	159
259.000	147
260.000	126
261.000	104
262.000	87
263.000	64
264.000	52
265.000	36
266.000	29
267.000	25
268.000	23
269.000	21
270.000	25
271.000	25
272.000	24
273.000	27
274.000	33
275.000	33
276.000	30
277.000	32
278.000	29
279.000	31
280.000	29
281.000	32
282.000	29
283.000	34
284.000	40
285.000	52
286.000	58
287.000	66
288.000	76
289.000	73
290.000	75
291.000	72
292.000	71
293.000	61
294.000	51
295.000	43
296.000	37
297.000	33
298.000	27
299.000	24
300.000	22
301.000	22
302.000	22
303.000	24
304.000	22
305.000	23
306.000	23
307.000	24
308.000	26
309.000	29
310.000	30
311.000	33
312.000	32
313.000	42
314.000	45
315.000	59
316.000	69
317.000	85
318.000	103
319.000	130
320.000	154
321.000	191
322.000	219
323.000	231
324.000	255
325.000	252
326.000	233
327.000	217
328.000	192
329.000	161
330.000	126
331.000	106
332.000	76
333.000	58
334.000	46
335.000	36
336.000	35
337.000	36
338.000	36
339.000	40
340.000	40
341.000	49
342.000	60
343.000	76
344.000	99
345.000	131
346.000	195
347.000	292
348.000	449
349.000	715
350.000	1095
351.000	1715
352.000	2607
353.000	3860
354.000	5527
355.000	7516
356.000	9915
357.000	12373
358.000	14741
359.000	16861
360.000	18320
361.000	19162
362.000	19066
363.000	18089
364.000	16294
365.000	14046
366.000	11530
367.000	9107
368.000	6832
369.000	4868
370.000	3346
371.000	2217
372.000	1411
373.000	866
374.000	527
375.000	336
376.000	218
377.000	165
378.000	151
379.000	171
380.000	201
381.000	258
382.000	341
383.000	473
384.000	666
385.000	867
386.000	1148
387.000	1442
388.000	1779
389.000	2121
390.000	2426
391.000	2667
392.000	2783
393.000	2835
394.000	2773
395.000	2581
396.000	2280
397.000	1939
398.000	1601
399.000	1255
400.000	948
401.000	679
402.000	479
403.000	312
404.000	203
405.000	131
406.000	84
407.000	49
408.000	32
409.000	20
410.000	13
411.000	11
412.000	10
413.000	9
414.000	7
415.000	9
416.000	8
417.000	9
418.000	8
419.000	9
420.000	10
421.000	9
422.000	8
423.000	9
424.000	9
425.000	10
426.000	14
427.000	18
428.000	22
429.000	29
430.000	40
431.000	56
432.000	77
433.000	99
434.000	135
435.000	173
436.000	215
437.000	254
438.000	292
439.000	305
440.000	345
441.000	343
442.000	335
443.000	310
444.000	304
445.000	258
446.000	226
447.000	178
448.000	154
449.000	116
450.000	101
451.000	79
452.000	65
453.000	53
454.000	51
455.000	44
456.000	44
457.000	38
458.000	34
459.000	31
460.000	29
461.000	28
462.000	25
463.000	21
464.000	19
465.000	19
466.000	18
467.000	18
468.000	18
469.000	20
470.000	20
471.000	23
472.000	28
473.000	34
474.000	34
475.000	38
476.000	46
477.000	50
478.000	58
479.000	64
480.000	68
481.000	69
482.000	73
483.000	76
484.000	73
485.000	70
486.000	69
487.000	57
488.000	50
489.000	42
490.000	38
491.000	29
492.000	28
493.000	23
494.000	19
495.000	20
496.000	15
497.000	17
498.000	18
499.000	14
500.000	16
501.000	19
502.000	21
503.000	16
504.000	18
505.000	18
506.000	20
507.000	19
508.000	19
509.000	22
510.000	22
511.000	21
512.000	24
513.000	26
514.000	25
515.000	25
516.000	27
517.000	27
518.000	30
519.000	33
520.000	31
521.000	40
522.000	41
523.000	43
524.000	44
525.000	45
526.000	49
527.000	53
528.000	51
529.000	53
530.000	51
531.000	49
532.000	44
533.000	46
534.000	41
535.000	36
536.000	35
537.000	36
538.000	34
539.000	28
540.000	26
541.000	23
542.000	22
543.000	23
544.000	24
545.000	22
546.000	23
547.000	22
548.000	25
549.000	22
550.000	22
551.000	24
552.000	25
553.000	27
554.000	27
555.000	24
556.000	29
557.000	28
558.000	30
559.000	30
560.000	30
561.000	36
562.000	34
563.000	37
564.000	40
565.000	42
566.000	48
567.000	55
568.000	65
569.000	75
570.000	87
571.000	92
572.000	101
573.000	114
574.000	115
575.000	124
576.000	122
577.000	124
578.000	126
579.000	118
580.000	112
581.000	93
582.000	88
583.000	76
584.000	69
585.000	61
586.000	51
587.000	49
588.000	44
589.000	40
590.000	39
591.000	35
592.000	35
593.000	33
594.000	34
595.000	39
596.000	37
597.000	39
598.000	37
599.000	44
600.000	38
601.000	44
602.000	49
603.000	50
604.000	54
605.000	68
606.000	84
607.000	105
608.000	140
609.000	196
610.000	273
611.000	393
612.000	560
613.000	773
614.000	1086
615.000	1474
616.000	1955
617.000	2468
618.000	3196
619.000	3871
620.000	4551
621.000	5240
622.000	5897
623.000	6422
624.000	6747
625.000	6923
626.000	6880
627.000	6602
628.000	6210
629.000	5623
630.000	4976
631.000	4247
632.000	3538
633.000	2873
634.000	2256
635.000	1738
636.000	1271
637.000	948
638.000	682
639.000	471
640.000	341
641.000	241
642.000	172
643.000	128
644.000	97
645.000	92
646.000	73
647.000	70
648.000	65
649.000	64
650.000	62
651.000	61
652.000	59
653.000	59
654.000	52
655.000	60
656.000	62
657.000	61
658.000	62
659.000	65
660.000	60
661.000	69
662.000	71
663.000	67
664.000	71
665.000	64
666.000	78
667.000	82
668.000	85
669.000	87
670.000	89
671.000	102
672.000	108
673.000	130
674.000	144
675.000	169
676.000	197
677.000	249
678.000	304
679.000	362
680.000	440
681.000	526
682.000	614
683.000	742
684.000	825
685.000	928
686.000	1025
687.000	1094
688.000	1126
689.000	1149
690.000	1131
691.000	1097
692.000	1047
693.000	950
694.000	852
695.000	750
696.000	633
697.000	542
698.000	435
699.000	356
700.000	283
701.000	224
702.000	181
703.000	140
704.000	115
705.000	96
706.000	85
707.000	76
708.000	63
709.000	64
710.000	61
711.000	56
712.000	61
713.000	62
714.000	67
715.000	66
716.000	74
717.000	72
718.000	77
719.000	78
720.000	75
721.000	82
722.000	83
723.000	90
724.000	91
725.000	98
726.000	90
727.000	97
728.000	92
729.000	92
730.000	93
731.000	92
732.000	96
733.000	87
734.000	88
735.000	82
736.000	85
737.000	77
738.000	77
739.000	74
740.000	66
741.000	71
742.000	68
743.000	68
744.000	71
745.000	67
746.000	69
747.000	66
748.000	72
749.000	71
750.000	75
751.000	72
752.000	68
753.000	71
754.000	69
755.000	72
756.000	71
757.000	73
758.000	70
759.000	72
760.000	72
761.000	71
762.000	71
763.000	69
764.000	73
765.000	74
766.000	77
767.000	80
768.000	74
769.000	83
770.000	80
771.000	80
772.000	82
773.000	84
774.000	88
775.000	86
776.000	94
777.000	96
778.000	96
779.000	103
780.000	106
781.000	115
782.000	111
783.000	116
784.000	124
785.000	126
786.000	127
787.000	133
788.000	134
789.000	136
790.000	140
791.000	135
792.000	137
793.000	139
794.000	139
795.000	146
796.000	143
797.000	138
798.000	141
799.000	148
800.000	147
801.000	141
802.000	145
803.000	143
804.000	156
805.000	149
806.000	158
807.000	165
808.000	174
809.000	182
810.000	197
811.000	214
812.000	228
813.000	233
814.000	250
815.000	274
816.000	284
817.000	290
818.000	293
819.000	296
820.000	289
821.000	298
822.000	277
823.000	268
824.000	263
825.000	240
826.000	218
827.000	207
828.000	183
829.000	178
830.000	178
831.000	159
832.000	149
833.000	141
834.000	134
835.000	137
836.000	136
837.000	135
838.000	126
839.000	131
840.000	131
841.000	131
842.000	131
843.000	136
844.000	136
845.000	129
846.000	132
847.000	128
848.000	128
849.000	133
850.000	122
851.000	122
852.000	124
853.000	116
854.000	119
855.000	117
856.000	122
857.000	121
858.000	115
859.000	115
860.000	119
861.000	112
862.000	124
863.000	121
864.000	112
865.000	111
866.000	114
867.000	117
868.000	110
869.000	112
870.000	118
871.000	121
872.000	119
873.000	113
874.000	122
875.000	116
876.000	119
877.000	117
878.000	119
879.000	114
880.000	117
881.000	118
882.000	115
883.000	119
884.000	121
885.000	124
886.000	120
887.000	119
888.000	123
889.000	118
890.000	123
891.000	121
892.000	126
893.000	128
894.000	126
895.000	134
896.000	131
897.000	135
898.000	142
899.000	140
900.000	140
901.000	146
902.000	144
903.000	150
904.000	152
905.000	156
906.000	157
907.000	152
908.000	161
909.000	161
910.000	163
911.000	163
912.000	175
913.000	169
914.000	171
915.000	174
916.000	169
917.000	173
918.000	170
919.000	173
920.000	175
921.000	176
922.000	179
923.000	171
924.000	184
925.000	184
926.000	191
927.000	184
928.000	190
929.000	189
930.000	193
931.000	197
932.000	207
933.000	213
934.000	214
935.000	221
936.000	223
937.000	237
938.000	243
939.000	248
940.000	246
941.000	254
942.000	269
943.000	273
944.000	263
945.000	257
946.000	256
947.000	253
948.000	244
949.000	230
950.000	227
951.000	221
952.000	216
953.000	206
954.000	199
955.000	191
956.000	197
957.000	186
958.000	181
959.000	180
960.000	181
961.000	167
962.000	175
963.000	170
964.000	183
965.000	181
966.000	180
967.000	191
968.000	185
969.000	181
970.000	182
971.000	188
972.000	185
973.000	180
974.000	190
975.000	186
976.000	184
977.000	183
978.000	178
979.000	176
980.000	172
981.000	171
982.000	166
983.000	161
984.000	162
985.000	159
986.000	157
987.000	151
988.000	152
989.000	150
990.000	151
991.000	143
992.000	151
993.000	138
994.000	138
995.000	147
996.000	141
997.000	136
998.000	134
999.000	140
1000.000	136
1001.000	134
1002.000	139
1003.000	138
1004.000	131
1005.000	135
1006.000	137
1007.000	134
1008.000	137
1009.000	130
1010.000	133
1011.000	138
1012.000	137
1013.000	138
1014.000	137
1015.000	136
1016.000	138
1017.000	141
1018.000	139
1019.000	138
1020.000	142
1021.000	143
1022.000	134
1023.000	139
1024.000	140
1025.000	143
1026.000	143
1027.000	139
1028.000	143
1029.000	144
1030.000	143
1031.000	140
1032.000	147
1033.000	145
1034.000	149
1035.000	144
1036.000	143
1037.000	144
1038.000	144
1039.000	145
1040.000	144
1041.000	144
1042.000	150
1043.000	147
1044.000	145
1045.000	145
1046.000	148
1047.000	152
1048.000	152
1049.000	149
1050.000	162
1051.000	159
1052.000	158
1053.000	153
1054.000	159
1055.000	156
1056.000	155
1057.000	154
1058.000	157
1059.000	155
1060.000	155
1061.000	157
1062.000	162
1063.000	163
1064.000	162
1065.000	155
1066.000	163
1067.000	162
1068.000	161
1069.000	167
1070.000	159
1071.000	164
1072.000	160
1073.000	160
1074.000	154
1075.000	162
1076.000	159
1077.000	153
1078.000	162
1079.000	163
1080.000	154
1081.000	163
1082.000	158
1083.000	163
1084.000	162
1085.000	159
1086.000	160
1087.000	160
1088.000	166
1089.000	169
1090.000	158
1091.000	167
1092.000	164
1093.000	173
1094.000	165
1095.000	171
1096.000	169
1097.000	168
1098.000	172
1099.000	174
1100.000	176
1101.000	174
1102.000	175
1103.000	169
1104.000	172
1105.000	174
1106.000	169
1107.000	169
1108.000	167
1109.000	162
1110.000	167
1111.000	163
1112.000	169
1113.000	164
1114.000	163
1115.000	157
1116.000	153
1117.000	160
1118.000	160
1119.000	160
1120.000	165
1121.000	157
1122.000	164
1123.000	163
1124.000	166
1125.000	161
1126.000	168
1127.000	158
1128.000	153
1129.000	164
1130.000	164
1131.000	161
1132.000	165
1133.000	164
1134.000	163
1135.000	159
1136.000	167
1137.000	163
1138.000	166
1139.000	163
1140.000	165
1141.000	169
1142.000	164
1143.000	169
1144.000	172
1145.000	166
1146.000	169
1147.000	165
1148.000	170
1149.000	171
1150.000	173
1151.000	175
1152.000	169
1153.000	177
1154.000	182
1155.000	178
1156.000	183
1157.000	178
1158.000	184
1159.000	185
1160.000	184
1161.000	188
1162.000	182
1163.000	190
1164.000	178
1165.000	189
1166.000	188
1167.000	178
1168.000	183
1169.000	173
1170.000	177
1171.000	182
1172.000	167
1173.000	171
1174.000	174
1175.000	164
1176.000	162
1177.000	165
1178.000	163
1179.000	164
1180.000	162
1181.000	158
1182.000	160
1183.000	165
1184.000	163
1185.000	158
1186.000	162
1187.000	161
1188.000	158
1189.000	160
1190.000	161
1191.000	163
1192.000	161
1193.000	158
1194.000	168
1195.000	165
1196.000	162
1197.000	160
1198.000	166
1199.000	157
1200.000	168
1201.000	170
1202.000	164
1203.000	165
1204.000	159
1205.000	170
1206.000	161
1207.000	167
1208.000	172
1209.000	163
1210.000	160
1211.000	166
1212.000	168
1213.000	163
1214.000	168
1215.000	171
1216.000	166
1217.000	175
1218.000	168
1219.000	169
1220.000	162
1221.000	168
1222.000	165
1223.000	168
1224.000	165
1225.000	166
1226.000	165
1227.000	168
1228.000	168
1229.000	163
1230.000	167
1231.000	172
1232.000	172
1233.000	169
1234.000	167
1235.000	182
1236.000	168
1237.000	171
1238.000	171
1239.000	172
1240.000	170
1241.000	173
1242.000	174
1243.000	173
1244.000	173
1245.000	165
1246.000	169
1247.000	164
1248.000	175
1249.000	175
1250.000	176
1251.000	175
1252.000	165
1253.000	164
1254.000	169
1255.000	166
1256.000	168
1257.000	170
1258.000	170
1259.000	166
1260.000	164
1261.000	171
1262.000	169
1263.000	167
1264.000	166
1265.000	167
1266.000	167
1267.000	166
1268.000	162
1269.000	167
1270.000	160
1271.000	166
1272.000	169
1273.000	171
1274.000	165
1275.000	167
1276.000	164
1277.000	169
1278.000	167
1279.000	168
1280.000	171
1281.000	166
1282.000	172
1283.000	166
1284.000	172
1285.000	170
1286.000	172
1287.000	172
1288.000	172
1289.000	171
1290.000	169
1291.000	171
1292.000	174
1293.000	173
1294.000	178
1295.000	179
1296.000	186
1297.000	180
1298.000	181
1299.000	177
1300.000	185
1301.000	190
1302.000	191
1303.000	180
1304.000	189
1305.000	187
1306.000	182
1307.000	186
1308.000	182
1309.000	178
1310.000	183
1311.000	180
1312.000	182
1313.000	179
1314.000	178
1315.000	180
1316.000	181
1317.000	179
1318.000	177
1319.000	166
1320.000	174
1321.000	169
1322.000	178
1323.000	175
1324.000	168
1325.000	177
1326.000	179
1327.000	171
1328.000	174
1329.000	165
1330.000	174
1331.000	171
1332.000	176
1333.000	180
1334.000	169
1335.000	171
1336.000	172
1337.000	175
1338.000	174
1339.000	170
1340.000	182
1341.000	172
1342.000	173
1343.000	169
1344.000	169
1345.000	175
1346.000	173
1347.000	183
1348.000	177
1349.000	177
1350.000	184
1351.000	184
1352.000	187
1353.000	188
1354.000	185
1355.000	190
1356.000	199
1357.000	204
1358.000	221
1359.000	233
1360.000	246
1361.000	263
1362.000	278
1363.000	310
1364.000	335
1365.000	373
1366.000	403
1367.000	446
1368.000	477
1369.000	524
1370.000	583
1371.000	639
1372.000	693
1373.000	732
1374.000	775
1375.000	817
1376.000	853
1377.000	877
1378.000	897
1379.000	928
1380.000	908
1381.000	908
1382.000	898
1383.000	864
1384.000	835
1385.000	805
1386.000	750
1387.000	706
1388.000	637
1389.000	604
1390.000	554
1391.000	482
1392.000	433
1393.000	403
1394.000	361
1395.000	329
1396.000	302
1397.000	274
1398.000	257
1399.000	231
1400.000	221
1401.000	200
1402.000	199
1403.000	195
1404.000	188
1405.000	183
1406.000	179
1407.000	177
1408.000	179
1409.000	173
1410.000	172
1411.000	166
1412.000	173
1413.000	180
1414.000	173
1415.000	173
1416.000	174
1417.000	169
1418.000	169
1419.000	171
1420.000	165
1421.000	168
1422.000	173
1423.000	170
1424.000	161
1425.000	175
1426.000	175
1427.000	175
1428.000	166
1429.000	171
1430.000	172
1431.000	172
1432.000	168
1433.000	177
1434.000	166
1435.000	164
1436.000	171
1437.000	175
1438.000	172
1439.000	171
1440.000	174
1441.000	175
1442.000	174
1443.000	177
1444.000	178
1445.000	173
1446.000	179
1447.000	176
1448.000	179
1449.000	185
1450.000	184
1451.000	186
1452.000	183
1453.000	189
1454.000	187
1455.000	183
1456.000	176
1457.000	182
1458.000	189
1459.000	189
1460.000	188
1461.000	187
1462.000	184
1463.000	182
1464.000	177
1465.000	188
1466.000	182
1467.000	187
1468.000	176
1469.000	185
1470.000	184
1471.000	177
1472.000	183
1473.000	177
1474.000	177
1475.000	180
1476.000	184
1477.000	177
1478.000	173
1479.000	174
1480.000	179
1481.000	176
1482.000	177
1483.000	169
1484.000	175
1485.000	174
1486.000	178
1487.000	177
1488.000	186
1489.000	176
1490.000	180
1491.000	182
1492.000	180
1493.000	180
1494.000	179
1495.000	180
1496.000	173
1497.000	179
1498.000	187
1499.000	184
1500.000	183
1501.000	185
1502.000	181
1503.000	184
1504.000	183
1505.000	180
1506.000	185
1507.000	182
1508.000	187
1509.000	188
1510.000	187
1511.000	183
1512.000	192
1513.000	183
1514.000	193
1515.000	186
1516.000	188
1517.000	186
1518.000	202
1519.000	196
1520.000	199
1521.000	206
1522.000	199
1523.000	205
1524.000	208
1525.000	213
1526.000	221
1527.000	224
1528.000	233
1529.000	228
1530.000	243
1531.000	249
1532.000	262
1533.000	269
1534.000	279
1535.000	292
1536.000	299
1537.000	320
1538.000	315
1539.000	316
1540.000	332
1541.000	333
1542.000	338
1543.000	342
1544.000	337
1545.000	345
1546.000	347
1547.000	340
1548.000	334
1549.000	328
1550.000	319
1551.000	313
1552.000	308
1553.000	296
1554.000	291
1555.000	302
1556.000	281
1557.000	277
1558.000	280
1559.000	275
1560.000	275
1561.000	282
1562.000	274
1563.000	274
1564.000	272
1565.000	282
1566.000	282
1567.000	290
1568.000	292
1569.000	286
1570.000	296
1571.000	308
1572.000	307
1573.000	318
1574.000	318
1575.000	324
1576.000	332
1577.000	344
1578.000	360
1579.000	359
1580.000	379
1581.000	363
1582.000	391
1583.000	400
1584.000	424
1585.000	426
1586.000	434
1587.000	448
1588.000	455
1589.000	474
1590.000	483
1591.000	491
1592.000	494
1593.000	509
1594.000	524
1595.000	525
1596.000	550
1597.000	547
1598.000	567
1599.000	560
1600.000	575
1601.000	579
1602.000	596
1603.000	602
1604.000	589
1605.000	603
1606.000	611
1607.000	612
1608.000	613
1609.000	603
1610.000	615
1611.000	599
1612.000	605
1613.000	595
1614.000	607
1615.000	593
1616.000	588
1617.000	576
1618.000	574
1619.000	555
1620.000	545
1621.000	543
1622.000	525
1623.000	524
1624.000	516
1625.000	502
1626.000	491
1627.000	484
1628.000	461
1629.000	447
1630.000	448
1631.000	426
1632.000	423
1633.000	401
1634.000	394
1635.000	379
1636.000	372
1637.000	351
1638.000	349
1639.000	341
1640.000	332
1641.000	330
1642.000	316
1643.000	303
1644.000	287
1645.000	294
1646.000	277
1647.000	273
1648.000	262
1649.000	258
1650.000	262
1651.000	250
1652.000	239
1653.000	232
1654.000	229
1655.000	223
1656.000	215
1657.000	211
1658.000	208
1659.000	207
1660.000	209
1661.000	205
1662.000	202
1663.000	194
1664.000	190
1665.000	186
1666.000	190
1667.000	190
1668.000	184
1669.000	191
1670.000	183
1671.000	180
1672.000	182
1673.000	182
1674.000	191
1675.000	193
1676.000	183
1677.000	197
1678.000	205
1679.000	209
1680.000	213
1681.000	230
1682.000	233
1683.000	245
1684.000	271
1685.000	281
1686.000	300
1687.000	319
1688.000	329
1689.000	356
1690.000	384
1691.000	400
1692.000	434
1693.000	449
1694.000	470
1695.000	483
1696.000	508
1697.000	507
1698.000	517
1699.000	525
1700.000	556
1701.000	546
1702.000	554
1703.000	531
1704.000	546
1705.000	533
1706.000	504
1707.000	506
1708.000	483
1709.000	463
1710.000	432
1711.000	414
1712.000	379
1713.000	359
1714.000	339
1715.000	306
1716.000	285
1717.000	263
1718.000	257
1719.000	238
1720.000	220
1721.000	197
1722.000	192
1723.000	175
1724.000	170
1725.000	170
1726.000	162
1727.000	152
1728.000	147
1729.000	153
1730.000	143
1731.000	145
1732.000	143
1733.000	138
1734.000	141
1735.000	144
1736.000	140
1737.000	144
1738.000	145
1739.000	139
1740.000	142
1741.000	142
1742.000	137
1743.000	135
1744.000	140
1745.000	140
1746.000	141
1747.000	142
1748.000	143
1749.000	145
1750.000	146
1751.000	147
1752.000	141
1753.000	145
1754.000	141
1755.000	144
1756.000	145
1757.000	146
1758.000	150
1759.000	149
1760.000	154
1761.000	153
1762.000	153
1763.000	156
1764.000	163
1765.000	155
1766.000	161
1767.000	160
1768.000	164
1769.000	166
1770.000	162
1771.000	165
1772.000	167
1773.000	171
1774.000	180
1775.000	179
1776.000	187
1777.000	181
1778.000	185
1779.000	179
1780.000	188
1781.000	188
1782.000	178
1783.000	189
1784.000	189
1785.000	194
1786.000	188
1787.000	191
1788.000	197
1789.000	188
1790.000	193
1791.000	193
1792.000	196
1793.000	192
1794.000	196
1795.000	194
1796.000	193
1797.000	185
1798.000	192
1799.000	191
1800.000	188
1801.000	190
1802.000	187
1803.000	189
1804.000	179
1805.000	183
1806.000	185
1807.000	184
1808.000	179
1809.000	183
1810.000	179
1811.000	178
1812.000	171
1813.000	175
1814.000	169
1815.000	168
1816.000	161
1817.000	159
1818.000	156
1819.000	162
1820.000	154
1821.000	151
1822.000	154
1823.000	149
1824.000	143
1825.000	143
1826.000	139
1827.000	133
1828.000	136
1829.000	135
1830.000	136
1831.000	124
1832.000	126
1833.000	124
1834.000	130
1835.000	121
1836.000	117
1837.000	117
1838.000	118
1839.000	113
1840.000	112
1841.000	116
1842.000	107
1843.000	101
1844.000	99
1845.000	111
1846.000	106
1847.000	99
1848.000	103
1849.000	99
1850.000	101
1851.000	96
1852.000	93
1853.000	98
1854.000	93
1855.000	95
1856.000	96
1857.000	93
1858.000	94
1859.000	87
1860.000	89
1861.000	89
1862.000	84
1863.000	88
1864.000	86
1865.000	84
1866.000	80
1867.000	85
1868.000	80
1869.000	78
1870.000	83
1871.000	77
1872.000	74
1873.000	80
1874.000	79
1875.000	78
1876.000	83
1877.000	73
1878.000	77
1879.000	71
1880.000	74
1881.000	72
1882.000	77
1883.000	75
1884.000	68
1885.000	77
1886.000	76
1887.000	72
1888.000	76
1889.000	74
1890.000	76
1891.000	77
1892.000	76
1893.000	81
1894.000	87
1895.000	85
1896.000	89
1897.000	85
1898.000	93
1899.000	92
1900.000	92
1901.000	97
1902.000	102
1903.000	107
1904.000	109
1905.000	114
1906.000	119
1907.000	118
1908.000	120
1909.000	117
1910.000	125
1911.000	124
1912.000	123
1913.000	123
1914.000	116
1915.000	120
1916.000	111
1917.000	112
1918.000	112
1919.000	113
1920.000	111
1921.000	100
1922.000	96
1923.000	89
1924.000	87
1925.000	82
1926.000	82
1927.000	80
1928.000	75
1929.000	72
1930.000	77
1931.000	69
1932.000	68
1933.000	71
1934.000	69
1935.000	71
1936.000	70
1937.000	69
1938.000	64
1939.000	74
1940.000	68
1941.000	63
1942.000	66
1943.000	67
1944.000	69
1945.000	69
1946.000	70
1947.000	68
1948.000	67
1949.000	66
1950.000	66
1951.000	66
1952.000	59
1953.000	65
1954.000	62
1955.000	63
1956.000	59
1957.000	57
1958.000	61
1959.000	58
1960.000	51
1961.000	54
1962.000	56
1963.000	56
1964.000	55
1965.000	52
1966.000	49
1967.000	56
1968.000	53
1969.000	53
1970.000	52
1971.000	49
1972.000	47
1973.000	54
1974.000	51
1975.000	53
1976.000	52
1977.000	54
1978.000	54
1979.000	51
1980.000	50
1981.000	51
1982.000	49
1983.000	52
1984.000	50
1985.000	50
1986.000	53
1987.000	51
1988.000	49
1989.000	50
1990.000	48
1991.000	49
1992.000	52
1993.000	51
1994.000	50
1995.000	47
1996.000	50
1997.000	54
1998.000	49
1999.000	48
2000.000	49
2001.000	51
2002.000	47
2003.000	46
2004.000	48
2005.000	49
2006.000	50
2007.000	49
2008.000	48
2009.000	49
2010.000	48
2011.000	51
2012.000	52
2013.000	45
2014.000	48
2015.000	48
2016.000	46
2017.000	49
2018.000	45
2019.000	51
2020.000	49
2021.000	52
2022.000	47
2023.000	49
2024.000	44
2025.000	45
2026.000	48
2027.000	48
2028.000	50
2029.000	46
2030.000	44
2031.000	52
2032.000	50
2033.000	48
2034.000	46
2035.000	48
2036.000	49
2037.000	48
2038.000	46
2039.000	46
2040.000	43
2041.000	48
2042.000	47
2043.000	45
2044.000	44
2045.000	47
2046.000	45
2047.000	46
2048.000	0
