Date:	22-Sep-20		Time:	10:49 PM		Version no:	0.00		Project name:	55		Sample name:	222		Section name:	section		Position	0.000000	mm	E0	0.000000	keV	E1	1.000000	keV/channel	sample surface	2.000000	cm	Tube anode:	Mo		Tube voltage:	30	kV	Tube current:	30	mA	gain	15		std. database			resultfile	result		matrix element	11		sample thickness	1.000000		air passage	0.560000	cm	comments	not in position		peaking_time	0.300000	m-sec	trigger_threshold	40.000000	V	mca_bin_width	2.000000	no:	number_mca_channels	2048.000000	no:	gap_time	2048.000000	m-sec	trigger_peaking_time	2048.000000	m-sec	GAINDAC	400		HIGHGAIN	400		TAURC	400		RCTAU	400		RCTAUFRAC	400		livetime	12.778311	seconds	runtime	15.000098	seconds	input_count_rate	8453.386602	cps	output_count_rate	7201.286285	cps	triggers	126178	seconds	events_in_run	98622	seconds	channel	content		1.000	0
2.000	0
3.000	0
4.000	0
5.000	0
6.000	0
7.000	0
8.000	0
9.000	0
10.000	0
11.000	0
12.000	0
13.000	0
14.000	0
15.000	0
16.000	0
17.000	0
18.000	0
19.000	0
20.000	0
21.000	0
22.000	0
23.000	0
24.000	0
25.000	0
26.000	0
27.000	0
28.000	0
29.000	0
30.000	0
31.000	0
32.000	0
33.000	0
34.000	0
35.000	1
36.000	1
37.000	1
38.000	0
39.000	1
40.000	0
41.000	0
42.000	0
43.000	1
44.000	0
45.000	1
46.000	0
47.000	0
48.000	1
49.000	1
50.000	2
51.000	1
52.000	2
53.000	2
54.000	4
55.000	4
56.000	6
57.000	9
58.000	13
59.000	17
60.000	22
61.000	27
62.000	31
63.000	30
64.000	28
65.000	29
66.000	27
67.000	28
68.000	26
69.000	26
70.000	26
71.000	27
72.000	26
73.000	25
74.000	23
75.000	23
76.000	26
77.000	24
78.000	25
79.000	24
80.000	27
81.000	21
82.000	25
83.000	25
84.000	23
85.000	23
86.000	25
87.000	25
88.000	23
89.000	26
90.000	24
91.000	22
92.000	22
93.000	20
94.000	21
95.000	20
96.000	23
97.000	24
98.000	22
99.000	20
100.000	18
101.000	22
102.000	19
103.000	20
104.000	21
105.000	19
106.000	19
107.000	20
108.000	18
109.000	18
110.000	19
111.000	18
112.000	19
113.000	18
114.000	16
115.000	17
116.000	18
117.000	19
118.000	20
119.000	20
120.000	15
121.000	16
122.000	17
123.000	15
124.000	17
125.000	16
126.000	15
127.000	15
128.000	15
129.000	14
130.000	16
131.000	15
132.000	14
133.000	14
134.000	13
135.000	14
136.000	14
137.000	12
138.000	16
139.000	18
140.000	17
141.000	19
142.000	21
143.000	25
144.000	24
145.000	27
146.000	29
147.000	26
148.000	28
149.000	24
150.000	22
151.000	20
152.000	19
153.000	20
154.000	20
155.000	19
156.000	17
157.000	15
158.000	17
159.000	13
160.000	17
161.000	16
162.000	15
163.000	18
164.000	23
165.000	30
166.000	38
167.000	48
168.000	63
169.000	72
170.000	83
171.000	78
172.000	77
173.000	65
174.000	54
175.000	48
176.000	40
177.000	31
178.000	29
179.000	30
180.000	32
181.000	28
182.000	37
183.000	41
184.000	59
185.000	72
186.000	90
187.000	115
188.000	142
189.000	168
190.000	182
191.000	179
192.000	182
193.000	165
194.000	142
195.000	110
196.000	89
197.000	66
198.000	42
199.000	33
200.000	25
201.000	21
202.000	15
203.000	15
204.000	16
205.000	14
206.000	12
207.000	13
208.000	15
209.000	12
210.000	15
211.000	16
212.000	15
213.000	15
214.000	17
215.000	18
216.000	22
217.000	24
218.000	26
219.000	31
220.000	35
221.000	37
222.000	39
223.000	36
224.000	40
225.000	35
226.000	32
227.000	28
228.000	27
229.000	25
230.000	19
231.000	18
232.000	17
233.000	12
234.000	14
235.000	12
236.000	11
237.000	11
238.000	13
239.000	11
240.000	11
241.000	12
242.000	11
243.000	14
244.000	13
245.000	14
246.000	17
247.000	21
248.000	27
249.000	36
250.000	48
251.000	67
252.000	80
253.000	102
254.000	126
255.000	149
256.000	157
257.000	156
258.000	157
259.000	145
260.000	126
261.000	106
262.000	83
263.000	66
264.000	48
265.000	35
266.000	28
267.000	24
268.000	22
269.000	22
270.000	21
271.000	23
272.000	26
273.000	27
274.000	28
275.000	30
276.000	28
277.000	29
278.000	29
279.000	27
280.000	28
281.000	26
282.000	27
283.000	33
284.000	33
285.000	44
286.000	50
287.000	51
288.000	61
289.000	63
290.000	68
291.000	65
292.000	59
293.000	53
294.000	44
295.000	40
296.000	36
297.000	30
298.000	24
299.000	20
300.000	18
301.000	18
302.000	20
303.000	17
304.000	18
305.000	19
306.000	20
307.000	25
308.000	26
309.000	27
310.000	29
311.000	31
312.000	39
313.000	43
314.000	51
315.000	66
316.000	87
317.000	118
318.000	156
319.000	207
320.000	253
321.000	303
322.000	349
323.000	392
324.000	404
325.000	402
326.000	402
327.000	362
328.000	311
329.000	258
330.000	207
331.000	160
332.000	112
333.000	84
334.000	63
335.000	48
336.000	36
337.000	34
338.000	31
339.000	34
340.000	38
341.000	46
342.000	57
343.000	67
344.000	86
345.000	117
346.000	169
347.000	250
348.000	381
349.000	588
350.000	895
351.000	1407
352.000	2077
353.000	3100
354.000	4341
355.000	5951
356.000	7799
357.000	9769
358.000	11661
359.000	13299
360.000	14559
361.000	15094
362.000	14997
363.000	14266
364.000	12917
365.000	11081
366.000	9164
367.000	7179
368.000	5399
369.000	3891
370.000	2683
371.000	1762
372.000	1124
373.000	701
374.000	416
375.000	269
376.000	185
377.000	132
378.000	123
379.000	137
380.000	160
381.000	208
382.000	277
383.000	376
384.000	514
385.000	679
386.000	905
387.000	1150
388.000	1426
389.000	1686
390.000	1951
391.000	2142
392.000	2244
393.000	2266
394.000	2186
395.000	2073
396.000	1834
397.000	1563
398.000	1279
399.000	998
400.000	755
401.000	546
402.000	370
403.000	248
404.000	165
405.000	105
406.000	65
407.000	43
408.000	26
409.000	17
410.000	14
411.000	9
412.000	10
413.000	9
414.000	7
415.000	10
416.000	8
417.000	8
418.000	9
419.000	8
420.000	9
421.000	9
422.000	10
423.000	9
424.000	9
425.000	11
426.000	12
427.000	15
428.000	18
429.000	27
430.000	39
431.000	48
432.000	62
433.000	80
434.000	105
435.000	140
436.000	165
437.000	192
438.000	228
439.000	245
440.000	261
441.000	269
442.000	247
443.000	249
444.000	226
445.000	199
446.000	166
447.000	144
448.000	117
449.000	92
450.000	72
451.000	63
452.000	56
453.000	49
454.000	46
455.000	43
456.000	34
457.000	36
458.000	35
459.000	33
460.000	29
461.000	26
462.000	26
463.000	21
464.000	22
465.000	20
466.000	19
467.000	19
468.000	20
469.000	24
470.000	25
471.000	28
472.000	30
473.000	32
474.000	32
475.000	39
476.000	45
477.000	50
478.000	52
479.000	57
480.000	60
481.000	64
482.000	61
483.000	62
484.000	58
485.000	56
486.000	57
487.000	51
488.000	42
489.000	40
490.000	35
491.000	27
492.000	26
493.000	22
494.000	21
495.000	20
496.000	18
497.000	17
498.000	18
499.000	16
500.000	17
501.000	18
502.000	21
503.000	21
504.000	21
505.000	22
506.000	23
507.000	20
508.000	23
509.000	22
510.000	25
511.000	26
512.000	27
513.000	24
514.000	27
515.000	28
516.000	27
517.000	26
518.000	29
519.000	28
520.000	30
521.000	37
522.000	36
523.000	40
524.000	42
525.000	45
526.000	45
527.000	48
528.000	52
529.000	51
530.000	49
531.000	48
532.000	47
533.000	48
534.000	39
535.000	40
536.000	35
537.000	29
538.000	29
539.000	29
540.000	25
541.000	31
542.000	28
543.000	25
544.000	25
545.000	25
546.000	21
547.000	24
548.000	25
549.000	25
550.000	25
551.000	24
552.000	25
553.000	25
554.000	25
555.000	27
556.000	32
557.000	32
558.000	32
559.000	33
560.000	34
561.000	35
562.000	39
563.000	42
564.000	47
565.000	58
566.000	67
567.000	80
568.000	93
569.000	114
570.000	131
571.000	155
572.000	170
573.000	187
574.000	202
575.000	205
576.000	213
577.000	212
578.000	203
579.000	194
580.000	173
581.000	158
582.000	136
583.000	125
584.000	101
585.000	84
586.000	69
587.000	63
588.000	53
589.000	44
590.000	41
591.000	38
592.000	36
593.000	39
594.000	34
595.000	37
596.000	35
597.000	39
598.000	37
599.000	39
600.000	39
601.000	44
602.000	45
603.000	50
604.000	55
605.000	65
606.000	76
607.000	99
608.000	140
609.000	187
610.000	261
611.000	362
612.000	509
613.000	722
614.000	1011
615.000	1361
616.000	1810
617.000	2346
618.000	2944
619.000	3581
620.000	4249
621.000	4864
622.000	5510
623.000	5983
624.000	6302
625.000	6482
626.000	6431
627.000	6205
628.000	5792
629.000	5269
630.000	4601
631.000	3963
632.000	3300
633.000	2710
634.000	2141
635.000	1631
636.000	1224
637.000	909
638.000	657
639.000	466
640.000	317
641.000	229
642.000	170
643.000	124
644.000	101
645.000	87
646.000	79
647.000	68
648.000	68
649.000	58
650.000	63
651.000	59
652.000	65
653.000	61
654.000	57
655.000	66
656.000	60
657.000	59
658.000	60
659.000	63
660.000	59
661.000	62
662.000	69
663.000	64
664.000	68
665.000	65
666.000	75
667.000	78
668.000	79
669.000	85
670.000	91
671.000	103
672.000	106
673.000	119
674.000	137
675.000	161
676.000	192
677.000	235
678.000	285
679.000	345
680.000	408
681.000	494
682.000	579
683.000	680
684.000	804
685.000	873
686.000	949
687.000	1018
688.000	1062
689.000	1088
690.000	1069
691.000	1050
692.000	978
693.000	900
694.000	787
695.000	702
696.000	596
697.000	502
698.000	411
699.000	333
700.000	266
701.000	216
702.000	170
703.000	135
704.000	114
705.000	95
706.000	79
707.000	71
708.000	70
709.000	63
710.000	61
711.000	61
712.000	60
713.000	60
714.000	65
715.000	65
716.000	66
717.000	67
718.000	68
719.000	75
720.000	80
721.000	82
722.000	83
723.000	84
724.000	88
725.000	93
726.000	98
727.000	96
728.000	91
729.000	98
730.000	97
731.000	98
732.000	103
733.000	93
734.000	89
735.000	92
736.000	82
737.000	80
738.000	74
739.000	74
740.000	73
741.000	71
742.000	72
743.000	69
744.000	71
745.000	67
746.000	69
747.000	71
748.000	67
749.000	73
750.000	67
751.000	73
752.000	66
753.000	71
754.000	73
755.000	70
756.000	70
757.000	72
758.000	67
759.000	72
760.000	69
761.000	73
762.000	69
763.000	68
764.000	72
765.000	73
766.000	78
767.000	73
768.000	73
769.000	77
770.000	84
771.000	84
772.000	85
773.000	85
774.000	87
775.000	91
776.000	94
777.000	100
778.000	99
779.000	113
780.000	119
781.000	120
782.000	123
783.000	122
784.000	130
785.000	137
786.000	139
787.000	141
788.000	143
789.000	143
790.000	141
791.000	135
792.000	141
793.000	146
794.000	143
795.000	145
796.000	147
797.000	142
798.000	153
799.000	145
800.000	148
801.000	146
802.000	154
803.000	155
804.000	157
805.000	156
806.000	160
807.000	165
808.000	180
809.000	183
810.000	196
811.000	202
812.000	217
813.000	233
814.000	252
815.000	255
816.000	273
817.000	281
818.000	289
819.000	295
820.000	289
821.000	297
822.000	278
823.000	277
824.000	261
825.000	241
826.000	219
827.000	212
828.000	197
829.000	177
830.000	166
831.000	154
832.000	150
833.000	139
834.000	135
835.000	130
836.000	132
837.000	134
838.000	130
839.000	136
840.000	137
841.000	127
842.000	137
843.000	138
844.000	131
845.000	137
846.000	135
847.000	132
848.000	129
849.000	127
850.000	123
851.000	124
852.000	121
853.000	118
854.000	121
855.000	116
856.000	123
857.000	114
858.000	119
859.000	121
860.000	115
861.000	117
862.000	120
863.000	117
864.000	120
865.000	125
866.000	115
867.000	119
868.000	121
869.000	123
870.000	110
871.000	120
872.000	120
873.000	119
874.000	117
875.000	121
876.000	119
877.000	114
878.000	121
879.000	122
880.000	117
881.000	111
882.000	117
883.000	116
884.000	116
885.000	119
886.000	119
887.000	120
888.000	118
889.000	121
890.000	122
891.000	129
892.000	130
893.000	129
894.000	132
895.000	134
896.000	132
897.000	136
898.000	147
899.000	144
900.000	150
901.000	150
902.000	146
903.000	150
904.000	154
905.000	158
906.000	155
907.000	161
908.000	164
909.000	164
910.000	166
911.000	169
912.000	172
913.000	173
914.000	176
915.000	165
916.000	175
917.000	172
918.000	178
919.000	178
920.000	182
921.000	177
922.000	179
923.000	179
924.000	180
925.000	184
926.000	178
927.000	191
928.000	193
929.000	197
930.000	203
931.000	206
932.000	208
933.000	218
934.000	215
935.000	223
936.000	229
937.000	229
938.000	242
939.000	248
940.000	252
941.000	259
942.000	263
943.000	258
944.000	264
945.000	262
946.000	252
947.000	253
948.000	248
949.000	252
950.000	224
951.000	224
952.000	218
953.000	207
954.000	193
955.000	189
956.000	187
957.000	189
958.000	177
959.000	171
960.000	183
961.000	185
962.000	174
963.000	179
964.000	168
965.000	184
966.000	184
967.000	186
968.000	189
969.000	188
970.000	184
971.000	191
972.000	180
973.000	178
974.000	181
975.000	184
976.000	181
977.000	174
978.000	175
979.000	171
980.000	167
981.000	168
982.000	166
983.000	153
984.000	154
985.000	160
986.000	158
987.000	149
988.000	147
989.000	152
990.000	149
991.000	153
992.000	143
993.000	144
994.000	144
995.000	137
996.000	136
997.000	145
998.000	134
999.000	135
1000.000	135
1001.000	136
1002.000	141
1003.000	142
1004.000	130
1005.000	136
1006.000	131
1007.000	138
1008.000	138
1009.000	135
1010.000	138
1011.000	132
1012.000	138
1013.000	142
1014.000	140
1015.000	140
1016.000	136
1017.000	143
1018.000	145
1019.000	135
1020.000	134
1021.000	147
1022.000	142
1023.000	145
1024.000	149
1025.000	144
1026.000	142
1027.000	138
1028.000	142
1029.000	146
1030.000	146
1031.000	147
1032.000	152
1033.000	149
1034.000	152
1035.000	152
1036.000	143
1037.000	146
1038.000	150
1039.000	142
1040.000	144
1041.000	146
1042.000	150
1043.000	148
1044.000	147
1045.000	149
1046.000	150
1047.000	157
1048.000	151
1049.000	152
1050.000	157
1051.000	155
1052.000	153
1053.000	160
1054.000	157
1055.000	160
1056.000	156
1057.000	158
1058.000	162
1059.000	152
1060.000	164
1061.000	158
1062.000	166
1063.000	165
1064.000	158
1065.000	161
1066.000	161
1067.000	164
1068.000	158
1069.000	163
1070.000	152
1071.000	163
1072.000	156
1073.000	156
1074.000	160
1075.000	166
1076.000	165
1077.000	168
1078.000	156
1079.000	153
1080.000	163
1081.000	163
1082.000	159
1083.000	160
1084.000	167
1085.000	163
1086.000	158
1087.000	161
1088.000	159
1089.000	166
1090.000	165
1091.000	169
1092.000	167
1093.000	166
1094.000	168
1095.000	169
1096.000	161
1097.000	172
1098.000	177
1099.000	166
1100.000	182
1101.000	171
1102.000	174
1103.000	173
1104.000	176
1105.000	172
1106.000	167
1107.000	167
1108.000	173
1109.000	165
1110.000	163
1111.000	169
1112.000	161
1113.000	164
1114.000	159
1115.000	159
1116.000	162
1117.000	163
1118.000	163
1119.000	157
1120.000	164
1121.000	159
1122.000	159
1123.000	161
1124.000	163
1125.000	164
1126.000	165
1127.000	162
1128.000	158
1129.000	160
1130.000	164
1131.000	167
1132.000	165
1133.000	166
1134.000	162
1135.000	163
1136.000	168
1137.000	169
1138.000	172
1139.000	168
1140.000	169
1141.000	167
1142.000	169
1143.000	163
1144.000	164
1145.000	165
1146.000	161
1147.000	169
1148.000	171
1149.000	174
1150.000	171
1151.000	178
1152.000	175
1153.000	179
1154.000	182
1155.000	181
1156.000	191
1157.000	192
1158.000	181
1159.000	185
1160.000	192
1161.000	186
1162.000	193
1163.000	189
1164.000	188
1165.000	195
1166.000	185
1167.000	191
1168.000	187
1169.000	184
1170.000	180
1171.000	179
1172.000	177
1173.000	176
1174.000	168
1175.000	172
1176.000	167
1177.000	164
1178.000	170
1179.000	159
1180.000	163
1181.000	172
1182.000	163
1183.000	167
1184.000	154
1185.000	163
1186.000	163
1187.000	161
1188.000	159
1189.000	160
1190.000	166
1191.000	159
1192.000	163
1193.000	161
1194.000	167
1195.000	161
1196.000	168
1197.000	165
1198.000	160
1199.000	162
1200.000	162
1201.000	163
1202.000	169
1203.000	161
1204.000	161
1205.000	158
1206.000	160
1207.000	166
1208.000	162
1209.000	165
1210.000	167
1211.000	170
1212.000	161
1213.000	163
1214.000	163
1215.000	162
1216.000	164
1217.000	168
1218.000	169
1219.000	172
1220.000	171
1221.000	170
1222.000	171
1223.000	173
1224.000	169
1225.000	173
1226.000	174
1227.000	172
1228.000	174
1229.000	171
1230.000	173
1231.000	167
1232.000	175
1233.000	177
1234.000	174
1235.000	172
1236.000	170
1237.000	173
1238.000	178
1239.000	175
1240.000	167
1241.000	177
1242.000	175
1243.000	171
1244.000	172
1245.000	180
1246.000	165
1247.000	180
1248.000	166
1249.000	174
1250.000	178
1251.000	170
1252.000	170
1253.000	168
1254.000	169
1255.000	173
1256.000	174
1257.000	168
1258.000	172
1259.000	172
1260.000	175
1261.000	173
1262.000	167
1263.000	170
1264.000	175
1265.000	166
1266.000	173
1267.000	172
1268.000	167
1269.000	171
1270.000	165
1271.000	173
1272.000	165
1273.000	173
1274.000	174
1275.000	172
1276.000	173
1277.000	170
1278.000	173
1279.000	166
1280.000	175
1281.000	174
1282.000	176
1283.000	171
1284.000	172
1285.000	176
1286.000	175
1287.000	178
1288.000	174
1289.000	176
1290.000	182
1291.000	182
1292.000	179
1293.000	189
1294.000	187
1295.000	187
1296.000	189
1297.000	186
1298.000	192
1299.000	199
1300.000	200
1301.000	198
1302.000	203
1303.000	206
1304.000	199
1305.000	205
1306.000	193
1307.000	201
1308.000	203
1309.000	198
1310.000	201
1311.000	200
1312.000	191
1313.000	187
1314.000	187
1315.000	191
1316.000	179
1317.000	182
1318.000	181
1319.000	184
1320.000	184
1321.000	181
1322.000	179
1323.000	177
1324.000	173
1325.000	179
1326.000	170
1327.000	177
1328.000	181
1329.000	178
1330.000	180
1331.000	180
1332.000	169
1333.000	180
1334.000	174
1335.000	170
1336.000	177
1337.000	175
1338.000	176
1339.000	177
1340.000	183
1341.000	182
1342.000	176
1343.000	173
1344.000	183
1345.000	172
1346.000	175
1347.000	172
1348.000	181
1349.000	175
1350.000	178
1351.000	175
1352.000	185
1353.000	194
1354.000	188
1355.000	192
1356.000	204
1357.000	204
1358.000	209
1359.000	220
1360.000	232
1361.000	241
1362.000	262
1363.000	293
1364.000	315
1365.000	348
1366.000	364
1367.000	400
1368.000	441
1369.000	471
1370.000	528
1371.000	556
1372.000	604
1373.000	640
1374.000	682
1375.000	713
1376.000	734
1377.000	769
1378.000	784
1379.000	797
1380.000	799
1381.000	784
1382.000	781
1383.000	746
1384.000	718
1385.000	701
1386.000	662
1387.000	619
1388.000	577
1389.000	520
1390.000	496
1391.000	436
1392.000	406
1393.000	372
1394.000	343
1395.000	304
1396.000	279
1397.000	262
1398.000	240
1399.000	224
1400.000	217
1401.000	195
1402.000	204
1403.000	196
1404.000	177
1405.000	186
1406.000	180
1407.000	175
1408.000	184
1409.000	178
1410.000	174
1411.000	181
1412.000	176
1413.000	175
1414.000	172
1415.000	177
1416.000	175
1417.000	172
1418.000	175
1419.000	175
1420.000	176
1421.000	171
1422.000	176
1423.000	175
1424.000	172
1425.000	174
1426.000	177
1427.000	178
1428.000	171
1429.000	171
1430.000	174
1431.000	171
1432.000	176
1433.000	183
1434.000	174
1435.000	172
1436.000	175
1437.000	177
1438.000	179
1439.000	172
1440.000	169
1441.000	180
1442.000	182
1443.000	174
1444.000	183
1445.000	182
1446.000	180
1447.000	181
1448.000	183
1449.000	183
1450.000	181
1451.000	183
1452.000	194
1453.000	181
1454.000	191
1455.000	194
1456.000	192
1457.000	185
1458.000	190
1459.000	202
1460.000	192
1461.000	197
1462.000	191
1463.000	184
1464.000	186
1465.000	192
1466.000	182
1467.000	186
1468.000	184
1469.000	189
1470.000	180
1471.000	184
1472.000	179
1473.000	186
1474.000	179
1475.000	185
1476.000	183
1477.000	181
1478.000	187
1479.000	177
1480.000	180
1481.000	186
1482.000	186
1483.000	179
1484.000	179
1485.000	180
1486.000	175
1487.000	185
1488.000	180
1489.000	180
1490.000	181
1491.000	190
1492.000	176
1493.000	179
1494.000	178
1495.000	189
1496.000	182
1497.000	177
1498.000	181
1499.000	184
1500.000	184
1501.000	181
1502.000	183
1503.000	185
1504.000	181
1505.000	189
1506.000	185
1507.000	186
1508.000	185
1509.000	185
1510.000	188
1511.000	188
1512.000	193
1513.000	184
1514.000	190
1515.000	197
1516.000	195
1517.000	199
1518.000	195
1519.000	200
1520.000	202
1521.000	201
1522.000	205
1523.000	212
1524.000	220
1525.000	216
1526.000	226
1527.000	221
1528.000	230
1529.000	231
1530.000	245
1531.000	246
1532.000	262
1533.000	268
1534.000	270
1535.000	285
1536.000	290
1537.000	293
1538.000	310
1539.000	306
1540.000	324
1541.000	318
1542.000	326
1543.000	320
1544.000	339
1545.000	333
1546.000	335
1547.000	325
1548.000	322
1549.000	313
1550.000	307
1551.000	305
1552.000	285
1553.000	293
1554.000	285
1555.000	281
1556.000	272
1557.000	274
1558.000	268
1559.000	276
1560.000	258
1561.000	268
1562.000	271
1563.000	279
1564.000	277
1565.000	275
1566.000	279
1567.000	292
1568.000	293
1569.000	304
1570.000	309
1571.000	315
1572.000	320
1573.000	324
1574.000	324
1575.000	332
1576.000	342
1577.000	345
1578.000	363
1579.000	365
1580.000	376
1581.000	396
1582.000	397
1583.000	402
1584.000	415
1585.000	435
1586.000	441
1587.000	452
1588.000	480
1589.000	481
1590.000	499
1591.000	508
1592.000	520
1593.000	530
1594.000	539
1595.000	547
1596.000	558
1597.000	570
1598.000	593
1599.000	576
1600.000	603
1601.000	590
1602.000	624
1603.000	609
1604.000	617
1605.000	627
1606.000	624
1607.000	624
1608.000	631
1609.000	637
1610.000	634
1611.000	634
1612.000	625
1613.000	621
1614.000	617
1615.000	610
1616.000	591
1617.000	599
1618.000	590
1619.000	588
1620.000	564
1621.000	559
1622.000	554
1623.000	532
1624.000	515
1625.000	509
1626.000	494
1627.000	504
1628.000	468
1629.000	465
1630.000	466
1631.000	435
1632.000	441
1633.000	410
1634.000	403
1635.000	386
1636.000	378
1637.000	378
1638.000	358
1639.000	355
1640.000	346
1641.000	329
1642.000	326
1643.000	318
1644.000	298
1645.000	301
1646.000	281
1647.000	286
1648.000	273
1649.000	266
1650.000	261
1651.000	252
1652.000	242
1653.000	240
1654.000	237
1655.000	231
1656.000	228
1657.000	224
1658.000	212
1659.000	212
1660.000	211
1661.000	205
1662.000	205
1663.000	194
1664.000	195
1665.000	193
1666.000	196
1667.000	190
1668.000	189
1669.000	189
1670.000	181
1671.000	192
1672.000	189
1673.000	195
1674.000	192
1675.000	184
1676.000	202
1677.000	197
1678.000	200
1679.000	218
1680.000	219
1681.000	221
1682.000	244
1683.000	250
1684.000	266
1685.000	282
1686.000	296
1687.000	312
1688.000	343
1689.000	356
1690.000	385
1691.000	404
1692.000	428
1693.000	454
1694.000	458
1695.000	478
1696.000	495
1697.000	518
1698.000	537
1699.000	536
1700.000	536
1701.000	541
1702.000	551
1703.000	545
1704.000	541
1705.000	542
1706.000	518
1707.000	495
1708.000	482
1709.000	448
1710.000	445
1711.000	416
1712.000	387
1713.000	362
1714.000	337
1715.000	320
1716.000	300
1717.000	272
1718.000	253
1719.000	237
1720.000	226
1721.000	208
1722.000	202
1723.000	191
1724.000	175
1725.000	171
1726.000	161
1727.000	164
1728.000	155
1729.000	149
1730.000	157
1731.000	153
1732.000	143
1733.000	153
1734.000	148
1735.000	147
1736.000	142
1737.000	145
1738.000	148
1739.000	147
1740.000	148
1741.000	152
1742.000	145
1743.000	145
1744.000	148
1745.000	148
1746.000	144
1747.000	142
1748.000	146
1749.000	143
1750.000	150
1751.000	148
1752.000	152
1753.000	157
1754.000	152
1755.000	158
1756.000	162
1757.000	159
1758.000	153
1759.000	156
1760.000	160
1761.000	162
1762.000	159
1763.000	159
1764.000	166
1765.000	167
1766.000	172
1767.000	177
1768.000	173
1769.000	175
1770.000	178
1771.000	182
1772.000	181
1773.000	182
1774.000	175
1775.000	172
1776.000	185
1777.000	184
1778.000	189
1779.000	188
1780.000	188
1781.000	195
1782.000	202
1783.000	192
1784.000	198
1785.000	190
1786.000	194
1787.000	200
1788.000	200
1789.000	198
1790.000	196
1791.000	197
1792.000	202
1793.000	197
1794.000	201
1795.000	199
1796.000	190
1797.000	201
1798.000	191
1799.000	197
1800.000	192
1801.000	195
1802.000	201
1803.000	195
1804.000	199
1805.000	194
1806.000	191
1807.000	189
1808.000	191
1809.000	179
1810.000	184
1811.000	175
1812.000	177
1813.000	181
1814.000	172
1815.000	172
1816.000	169
1817.000	165
1818.000	168
1819.000	160
1820.000	156
1821.000	157
1822.000	153
1823.000	156
1824.000	146
1825.000	146
1826.000	153
1827.000	140
1828.000	145
1829.000	136
1830.000	135
1831.000	135
1832.000	132
1833.000	131
1834.000	131
1835.000	121
1836.000	127
1837.000	127
1838.000	121
1839.000	112
1840.000	116
1841.000	118
1842.000	118
1843.000	109
1844.000	111
1845.000	111
1846.000	107
1847.000	107
1848.000	103
1849.000	103
1850.000	92
1851.000	97
1852.000	99
1853.000	100
1854.000	100
1855.000	99
1856.000	91
1857.000	87
1858.000	89
1859.000	87
1860.000	92
1861.000	92
1862.000	84
1863.000	88
1864.000	81
1865.000	87
1866.000	89
1867.000	82
1868.000	80
1869.000	83
1870.000	84
1871.000	78
1872.000	82
1873.000	79
1874.000	83
1875.000	79
1876.000	76
1877.000	79
1878.000	79
1879.000	81
1880.000	81
1881.000	77
1882.000	78
1883.000	79
1884.000	82
1885.000	80
1886.000	76
1887.000	76
1888.000	84
1889.000	77
1890.000	83
1891.000	78
1892.000	74
1893.000	85
1894.000	86
1895.000	80
1896.000	89
1897.000	91
1898.000	90
1899.000	98
1900.000	101
1901.000	103
1902.000	103
1903.000	109
1904.000	111
1905.000	111
1906.000	111
1907.000	118
1908.000	124
1909.000	129
1910.000	123
1911.000	129
1912.000	125
1913.000	124
1914.000	121
1915.000	120
1916.000	110
1917.000	116
1918.000	116
1919.000	108
1920.000	103
1921.000	98
1922.000	94
1923.000	91
1924.000	98
1925.000	85
1926.000	86
1927.000	85
1928.000	79
1929.000	73
1930.000	71
1931.000	76
1932.000	77
1933.000	71
1934.000	72
1935.000	69
1936.000	69
1937.000	69
1938.000	71
1939.000	70
1940.000	71
1941.000	72
1942.000	70
1943.000	69
1944.000	68
1945.000	68
1946.000	66
1947.000	68
1948.000	69
1949.000	68
1950.000	67
1951.000	68
1952.000	67
1953.000	61
1954.000	61
1955.000	63
1956.000	62
1957.000	61
1958.000	58
1959.000	57
1960.000	61
1961.000	60
1962.000	56
1963.000	55
1964.000	57
1965.000	51
1966.000	53
1967.000	54
1968.000	51
1969.000	55
1970.000	56
1971.000	54
1972.000	52
1973.000	54
1974.000	55
1975.000	50
1976.000	52
1977.000	54
1978.000	50
1979.000	51
1980.000	53
1981.000	50
1982.000	51
1983.000	55
1984.000	48
1985.000	57
1986.000	52
1987.000	51
1988.000	53
1989.000	50
1990.000	56
1991.000	53
1992.000	51
1993.000	52
1994.000	53
1995.000	53
1996.000	50
1997.000	50
1998.000	50
1999.000	53
2000.000	49
2001.000	53
2002.000	50
2003.000	48
2004.000	54
2005.000	50
2006.000	50
2007.000	48
2008.000	50
2009.000	53
2010.000	50
2011.000	49
2012.000	51
2013.000	51
2014.000	50
2015.000	51
2016.000	52
2017.000	50
2018.000	54
2019.000	49
2020.000	47
2021.000	51
2022.000	48
2023.000	46
2024.000	51
2025.000	51
2026.000	48
2027.000	47
2028.000	51
2029.000	46
2030.000	52
2031.000	48
2032.000	50
2033.000	52
2034.000	51
2035.000	48
2036.000	49
2037.000	47
2038.000	49
2039.000	49
2040.000	53
2041.000	50
2042.000	51
2043.000	49
2044.000	50
2045.000	45
2046.000	51
2047.000	49
2048.000	0
