Date:	23-Sep-20		Time:	11:32 PM		Version no:	0.00		Project name:	55		Sample name:	222		Section name:	section		Position	0.000000	mm	E0	0.000000	keV	E1	1.000000	keV/channel	sample surface	2.000000	cm	Tube anode:	Mo		Tube voltage:	30	kV	Tube current:	30	mA	gain	15		std. database			resultfile	result		matrix element	11		sample thickness	1.000000		air passage	0.560000	cm	comments	not in position		peaking_time	0.300000	m-sec	trigger_threshold	40.000000	V	mca_bin_width	2.000000	no:	number_mca_channels	2048.000000	no:	gap_time	2048.000000	m-sec	trigger_peaking_time	2048.000000	m-sec	GAINDAC	400		HIGHGAIN	400		TAURC	400		RCTAU	400		RCTAUFRAC	400		livetime	13.334824	seconds	runtime	15.000351	seconds	input_count_rate	47769.585089	cps	output_count_rate	42465.604889	cps	triggers	704307	seconds	events_in_run	618783	seconds	channel	content		1.000	0
2.000	0
3.000	0
4.000	0
5.000	0
6.000	0
7.000	0
8.000	0
9.000	0
10.000	0
11.000	0
12.000	0
13.000	0
14.000	0
15.000	0
16.000	0
17.000	0
18.000	0
19.000	0
20.000	0
21.000	0
22.000	0
23.000	0
24.000	0
25.000	0
26.000	0
27.000	0
28.000	0
29.000	0
30.000	0
31.000	0
32.000	0
33.000	0
34.000	0
35.000	0
36.000	1
37.000	1
38.000	1
39.000	0
40.000	0
41.000	1
42.000	0
43.000	1
44.000	1
45.000	0
46.000	0
47.000	1
48.000	1
49.000	1
50.000	1
51.000	2
52.000	3
53.000	3
54.000	4
55.000	5
56.000	8
57.000	8
58.000	13
59.000	21
60.000	23
61.000	26
62.000	28
63.000	30
64.000	30
65.000	31
66.000	30
67.000	28
68.000	28
69.000	25
70.000	25
71.000	27
72.000	27
73.000	25
74.000	23
75.000	26
76.000	25
77.000	25
78.000	25
79.000	26
80.000	21
81.000	27
82.000	25
83.000	27
84.000	24
85.000	27
86.000	24
87.000	24
88.000	24
89.000	24
90.000	23
91.000	26
92.000	21
93.000	21
94.000	22
95.000	21
96.000	21
97.000	23
98.000	18
99.000	22
100.000	19
101.000	23
102.000	21
103.000	20
104.000	20
105.000	23
106.000	19
107.000	20
108.000	18
109.000	21
110.000	19
111.000	20
112.000	18
113.000	20
114.000	19
115.000	20
116.000	18
117.000	20
118.000	17
119.000	21
120.000	19
121.000	20
122.000	19
123.000	16
124.000	18
125.000	17
126.000	17
127.000	18
128.000	15
129.000	15
130.000	19
131.000	16
132.000	18
133.000	16
134.000	18
135.000	19
136.000	17
137.000	17
138.000	15
139.000	18
140.000	20
141.000	20
142.000	22
143.000	22
144.000	25
145.000	23
146.000	27
147.000	26
148.000	21
149.000	25
150.000	22
151.000	19
152.000	17
153.000	18
154.000	16
155.000	17
156.000	17
157.000	15
158.000	16
159.000	15
160.000	14
161.000	13
162.000	15
163.000	18
164.000	19
165.000	25
166.000	25
167.000	31
168.000	36
169.000	39
170.000	44
171.000	44
172.000	44
173.000	42
174.000	35
175.000	33
176.000	31
177.000	30
178.000	30
179.000	29
180.000	35
181.000	40
182.000	48
183.000	64
184.000	82
185.000	111
186.000	149
187.000	197
188.000	241
189.000	279
190.000	307
191.000	313
192.000	315
193.000	280
194.000	239
195.000	185
196.000	149
197.000	103
198.000	74
199.000	49
200.000	33
201.000	24
202.000	20
203.000	17
204.000	19
205.000	16
206.000	17
207.000	17
208.000	16
209.000	19
210.000	18
211.000	20
212.000	21
213.000	20
214.000	22
215.000	22
216.000	31
217.000	34
218.000	40
219.000	42
220.000	50
221.000	53
222.000	63
223.000	58
224.000	59
225.000	56
226.000	51
227.000	42
228.000	38
229.000	31
230.000	27
231.000	21
232.000	21
233.000	19
234.000	17
235.000	18
236.000	14
237.000	14
238.000	16
239.000	14
240.000	16
241.000	16
242.000	16
243.000	17
244.000	16
245.000	20
246.000	20
247.000	24
248.000	32
249.000	39
250.000	53
251.000	72
252.000	95
253.000	116
254.000	137
255.000	167
256.000	175
257.000	191
258.000	187
259.000	165
260.000	151
261.000	121
262.000	97
263.000	73
264.000	59
265.000	43
266.000	33
267.000	29
268.000	25
269.000	26
270.000	25
271.000	28
272.000	32
273.000	30
274.000	34
275.000	36
276.000	36
277.000	35
278.000	33
279.000	36
280.000	33
281.000	34
282.000	35
283.000	41
284.000	45
285.000	53
286.000	61
287.000	70
288.000	81
289.000	84
290.000	86
291.000	83
292.000	79
293.000	69
294.000	57
295.000	53
296.000	42
297.000	39
298.000	34
299.000	30
300.000	27
301.000	27
302.000	28
303.000	27
304.000	27
305.000	25
306.000	30
307.000	31
308.000	32
309.000	33
310.000	39
311.000	36
312.000	42
313.000	49
314.000	54
315.000	55
316.000	63
317.000	83
318.000	93
319.000	113
320.000	134
321.000	158
322.000	179
323.000	196
324.000	204
325.000	195
326.000	192
327.000	178
328.000	148
329.000	130
330.000	108
331.000	88
332.000	69
333.000	60
334.000	46
335.000	42
336.000	36
337.000	42
338.000	42
339.000	50
340.000	53
341.000	59
342.000	75
343.000	95
344.000	125
345.000	179
346.000	248
347.000	380
348.000	584
349.000	945
350.000	1514
351.000	2345
352.000	3566
353.000	5257
354.000	7478
355.000	10236
356.000	13413
357.000	16839
358.000	20078
359.000	22964
360.000	25083
361.000	26093
362.000	25807
363.000	24493
364.000	22207
365.000	19154
366.000	15750
367.000	12394
368.000	9276
369.000	6663
370.000	4560
371.000	3016
372.000	1906
373.000	1168
374.000	721
375.000	449
376.000	306
377.000	236
378.000	212
379.000	233
380.000	272
381.000	348
382.000	468
383.000	644
384.000	874
385.000	1170
386.000	1538
387.000	1945
388.000	2406
389.000	2883
390.000	3280
391.000	3610
392.000	3840
393.000	3864
394.000	3703
395.000	3477
396.000	3081
397.000	2661
398.000	2155
399.000	1691
400.000	1287
401.000	914
402.000	616
403.000	419
404.000	267
405.000	166
406.000	101
407.000	62
408.000	38
409.000	23
410.000	18
411.000	13
412.000	10
413.000	9
414.000	8
415.000	7
416.000	8
417.000	7
418.000	8
419.000	8
420.000	9
421.000	8
422.000	7
423.000	8
424.000	8
425.000	10
426.000	8
427.000	10
428.000	11
429.000	13
430.000	18
431.000	22
432.000	28
433.000	35
434.000	46
435.000	54
436.000	65
437.000	77
438.000	89
439.000	91
440.000	98
441.000	100
442.000	97
443.000	94
444.000	87
445.000	72
446.000	62
447.000	55
448.000	46
449.000	39
450.000	35
451.000	24
452.000	23
453.000	24
454.000	22
455.000	21
456.000	22
457.000	15
458.000	17
459.000	18
460.000	16
461.000	17
462.000	13
463.000	14
464.000	12
465.000	13
466.000	14
467.000	13
468.000	14
469.000	13
470.000	16
471.000	16
472.000	15
473.000	16
474.000	17
475.000	18
476.000	20
477.000	22
478.000	23
479.000	26
480.000	27
481.000	27
482.000	29
483.000	25
484.000	29
485.000	25
486.000	26
487.000	25
488.000	22
489.000	18
490.000	14
491.000	17
492.000	14
493.000	17
494.000	13
495.000	13
496.000	14
497.000	13
498.000	14
499.000	13
500.000	13
501.000	14
502.000	17
503.000	14
504.000	16
505.000	16
506.000	15
507.000	15
508.000	17
509.000	19
510.000	17
511.000	19
512.000	19
513.000	17
514.000	21
515.000	21
516.000	20
517.000	21
518.000	23
519.000	24
520.000	25
521.000	26
522.000	28
523.000	31
524.000	35
525.000	34
526.000	37
527.000	36
528.000	36
529.000	37
530.000	36
531.000	36
532.000	36
533.000	34
534.000	33
535.000	31
536.000	27
537.000	26
538.000	25
539.000	20
540.000	20
541.000	20
542.000	20
543.000	20
544.000	19
545.000	17
546.000	19
547.000	18
548.000	22
549.000	24
550.000	22
551.000	22
552.000	22
553.000	25
554.000	23
555.000	26
556.000	27
557.000	26
558.000	29
559.000	27
560.000	29
561.000	32
562.000	37
563.000	41
564.000	47
565.000	59
566.000	64
567.000	77
568.000	96
569.000	114
570.000	129
571.000	143
572.000	161
573.000	174
574.000	196
575.000	203
576.000	210
577.000	208
578.000	206
579.000	196
580.000	172
581.000	156
582.000	132
583.000	108
584.000	97
585.000	79
586.000	66
587.000	52
588.000	40
589.000	41
590.000	28
591.000	30
592.000	30
593.000	24
594.000	25
595.000	23
596.000	28
597.000	27
598.000	24
599.000	25
600.000	28
601.000	29
602.000	30
603.000	33
604.000	35
605.000	35
606.000	42
607.000	48
608.000	65
609.000	84
610.000	100
611.000	149
612.000	192
613.000	266
614.000	370
615.000	489
616.000	634
617.000	812
618.000	1020
619.000	1237
620.000	1461
621.000	1697
622.000	1872
623.000	2051
624.000	2156
625.000	2212
626.000	2187
627.000	2140
628.000	1993
629.000	1818
630.000	1595
631.000	1371
632.000	1188
633.000	960
634.000	757
635.000	591
636.000	458
637.000	340
638.000	265
639.000	202
640.000	157
641.000	117
642.000	99
643.000	83
644.000	66
645.000	63
646.000	58
647.000	59
648.000	54
649.000	55
650.000	48
651.000	47
652.000	50
653.000	51
654.000	47
655.000	53
656.000	53
657.000	51
658.000	52
659.000	50
660.000	51
661.000	53
662.000	51
663.000	52
664.000	57
665.000	58
666.000	55
667.000	61
668.000	65
669.000	65
670.000	67
671.000	68
672.000	76
673.000	75
674.000	84
675.000	91
676.000	101
677.000	118
678.000	130
679.000	151
680.000	174
681.000	214
682.000	234
683.000	263
684.000	307
685.000	336
686.000	362
687.000	379
688.000	399
689.000	398
690.000	398
691.000	381
692.000	365
693.000	329
694.000	307
695.000	271
696.000	228
697.000	207
698.000	179
699.000	155
700.000	124
701.000	105
702.000	93
703.000	83
704.000	75
705.000	67
706.000	65
707.000	60
708.000	64
709.000	59
710.000	63
711.000	60
712.000	63
713.000	64
714.000	67
715.000	75
716.000	77
717.000	85
718.000	86
719.000	84
720.000	82
721.000	90
722.000	94
723.000	93
724.000	97
725.000	98
726.000	98
727.000	94
728.000	93
729.000	89
730.000	91
731.000	89
732.000	90
733.000	81
734.000	84
735.000	81
736.000	76
737.000	75
738.000	71
739.000	71
740.000	69
741.000	63
742.000	70
743.000	70
744.000	67
745.000	68
746.000	63
747.000	68
748.000	67
749.000	76
750.000	69
751.000	68
752.000	69
753.000	72
754.000	66
755.000	73
756.000	71
757.000	69
758.000	77
759.000	70
760.000	71
761.000	69
762.000	72
763.000	73
764.000	68
765.000	68
766.000	70
767.000	71
768.000	73
769.000	74
770.000	75
771.000	79
772.000	79
773.000	81
774.000	84
775.000	86
776.000	83
777.000	86
778.000	95
779.000	94
780.000	103
781.000	99
782.000	109
783.000	109
784.000	109
785.000	117
786.000	113
787.000	122
788.000	124
789.000	130
790.000	129
791.000	131
792.000	127
793.000	135
794.000	133
795.000	133
796.000	139
797.000	137
798.000	140
799.000	133
800.000	140
801.000	139
802.000	143
803.000	145
804.000	154
805.000	154
806.000	157
807.000	157
808.000	173
809.000	186
810.000	193
811.000	217
812.000	230
813.000	243
814.000	261
815.000	261
816.000	278
817.000	285
818.000	308
819.000	311
820.000	309
821.000	307
822.000	299
823.000	285
824.000	266
825.000	244
826.000	234
827.000	218
828.000	199
829.000	180
830.000	162
831.000	163
832.000	145
833.000	136
834.000	131
835.000	126
836.000	131
837.000	116
838.000	119
839.000	121
840.000	120
841.000	121
842.000	122
843.000	123
844.000	122
845.000	121
846.000	117
847.000	114
848.000	116
849.000	126
850.000	118
851.000	124
852.000	114
853.000	118
854.000	118
855.000	117
856.000	113
857.000	116
858.000	118
859.000	121
860.000	117
861.000	115
862.000	112
863.000	114
864.000	109
865.000	108
866.000	112
867.000	116
868.000	112
869.000	111
870.000	116
871.000	112
872.000	113
873.000	109
874.000	115
875.000	111
876.000	114
877.000	116
878.000	114
879.000	113
880.000	112
881.000	116
882.000	111
883.000	108
884.000	112
885.000	110
886.000	118
887.000	117
888.000	114
889.000	116
890.000	124
891.000	117
892.000	118
893.000	121
894.000	125
895.000	125
896.000	128
897.000	133
898.000	131
899.000	127
900.000	140
901.000	139
902.000	136
903.000	146
904.000	141
905.000	150
906.000	146
907.000	157
908.000	153
909.000	152
910.000	157
911.000	156
912.000	161
913.000	159
914.000	164
915.000	163
916.000	164
917.000	169
918.000	163
919.000	160
920.000	175
921.000	175
922.000	181
923.000	180
924.000	171
925.000	179
926.000	182
927.000	183
928.000	184
929.000	193
930.000	190
931.000	198
932.000	196
933.000	211
934.000	212
935.000	223
936.000	221
937.000	232
938.000	236
939.000	237
940.000	240
941.000	251
942.000	254
943.000	270
944.000	260
945.000	263
946.000	258
947.000	256
948.000	248
949.000	228
950.000	229
951.000	224
952.000	214
953.000	200
954.000	193
955.000	190
956.000	190
957.000	178
958.000	181
959.000	180
960.000	171
961.000	173
962.000	178
963.000	173
964.000	180
965.000	178
966.000	169
967.000	184
968.000	178
969.000	183
970.000	186
971.000	183
972.000	177
973.000	181
974.000	176
975.000	184
976.000	187
977.000	174
978.000	172
979.000	168
980.000	161
981.000	162
982.000	158
983.000	163
984.000	149
985.000	145
986.000	149
987.000	148
988.000	142
989.000	141
990.000	145
991.000	141
992.000	136
993.000	142
994.000	139
995.000	136
996.000	136
997.000	134
998.000	133
999.000	133
1000.000	136
1001.000	129
1002.000	131
1003.000	131
1004.000	132
1005.000	134
1006.000	129
1007.000	129
1008.000	133
1009.000	136
1010.000	135
1011.000	130
1012.000	133
1013.000	130
1014.000	132
1015.000	132
1016.000	128
1017.000	133
1018.000	135
1019.000	134
1020.000	139
1021.000	134
1022.000	132
1023.000	137
1024.000	134
1025.000	136
1026.000	138
1027.000	127
1028.000	139
1029.000	145
1030.000	134
1031.000	136
1032.000	140
1033.000	139
1034.000	140
1035.000	138
1036.000	140
1037.000	146
1038.000	138
1039.000	137
1040.000	146
1041.000	142
1042.000	146
1043.000	142
1044.000	149
1045.000	150
1046.000	144
1047.000	148
1048.000	148
1049.000	149
1050.000	150
1051.000	144
1052.000	159
1053.000	146
1054.000	159
1055.000	150
1056.000	151
1057.000	148
1058.000	152
1059.000	152
1060.000	155
1061.000	157
1062.000	157
1063.000	161
1064.000	162
1065.000	161
1066.000	150
1067.000	153
1068.000	158
1069.000	153
1070.000	150
1071.000	154
1072.000	161
1073.000	159
1074.000	153
1075.000	152
1076.000	152
1077.000	160
1078.000	156
1079.000	159
1080.000	154
1081.000	155
1082.000	149
1083.000	152
1084.000	155
1085.000	161
1086.000	155
1087.000	157
1088.000	153
1089.000	160
1090.000	158
1091.000	160
1092.000	155
1093.000	167
1094.000	162
1095.000	173
1096.000	171
1097.000	165
1098.000	171
1099.000	169
1100.000	167
1101.000	174
1102.000	170
1103.000	169
1104.000	171
1105.000	170
1106.000	164
1107.000	170
1108.000	164
1109.000	167
1110.000	165
1111.000	162
1112.000	161
1113.000	161
1114.000	160
1115.000	159
1116.000	159
1117.000	153
1118.000	158
1119.000	160
1120.000	152
1121.000	156
1122.000	158
1123.000	153
1124.000	156
1125.000	153
1126.000	163
1127.000	157
1128.000	165
1129.000	156
1130.000	155
1131.000	157
1132.000	162
1133.000	158
1134.000	170
1135.000	171
1136.000	159
1137.000	161
1138.000	159
1139.000	162
1140.000	165
1141.000	166
1142.000	166
1143.000	163
1144.000	159
1145.000	161
1146.000	159
1147.000	168
1148.000	167
1149.000	167
1150.000	161
1151.000	166
1152.000	164
1153.000	171
1154.000	174
1155.000	175
1156.000	178
1157.000	181
1158.000	178
1159.000	185
1160.000	180
1161.000	176
1162.000	182
1163.000	181
1164.000	177
1165.000	173
1166.000	181
1167.000	177
1168.000	172
1169.000	176
1170.000	167
1171.000	166
1172.000	162
1173.000	162
1174.000	160
1175.000	166
1176.000	166
1177.000	158
1178.000	158
1179.000	164
1180.000	162
1181.000	154
1182.000	162
1183.000	153
1184.000	155
1185.000	155
1186.000	158
1187.000	156
1188.000	158
1189.000	160
1190.000	159
1191.000	159
1192.000	163
1193.000	158
1194.000	156
1195.000	161
1196.000	160
1197.000	153
1198.000	158
1199.000	154
1200.000	159
1201.000	161
1202.000	159
1203.000	160
1204.000	157
1205.000	161
1206.000	160
1207.000	162
1208.000	154
1209.000	169
1210.000	160
1211.000	162
1212.000	160
1213.000	161
1214.000	164
1215.000	164
1216.000	153
1217.000	165
1218.000	155
1219.000	163
1220.000	167
1221.000	162
1222.000	166
1223.000	159
1224.000	164
1225.000	163
1226.000	162
1227.000	168
1228.000	167
1229.000	164
1230.000	166
1231.000	172
1232.000	166
1233.000	166
1234.000	162
1235.000	167
1236.000	172
1237.000	168
1238.000	172
1239.000	162
1240.000	170
1241.000	162
1242.000	168
1243.000	166
1244.000	169
1245.000	169
1246.000	167
1247.000	167
1248.000	167
1249.000	165
1250.000	164
1251.000	176
1252.000	162
1253.000	163
1254.000	164
1255.000	162
1256.000	165
1257.000	169
1258.000	165
1259.000	167
1260.000	163
1261.000	167
1262.000	163
1263.000	165
1264.000	162
1265.000	162
1266.000	164
1267.000	158
1268.000	164
1269.000	164
1270.000	162
1271.000	162
1272.000	171
1273.000	161
1274.000	156
1275.000	165
1276.000	163
1277.000	165
1278.000	163
1279.000	156
1280.000	167
1281.000	163
1282.000	172
1283.000	153
1284.000	165
1285.000	160
1286.000	163
1287.000	161
1288.000	163
1289.000	165
1290.000	178
1291.000	171
1292.000	171
1293.000	167
1294.000	174
1295.000	173
1296.000	173
1297.000	173
1298.000	179
1299.000	177
1300.000	178
1301.000	175
1302.000	171
1303.000	171
1304.000	178
1305.000	172
1306.000	179
1307.000	175
1308.000	180
1309.000	172
1310.000	171
1311.000	174
1312.000	177
1313.000	171
1314.000	170
1315.000	173
1316.000	170
1317.000	172
1318.000	175
1319.000	168
1320.000	166
1321.000	164
1322.000	160
1323.000	166
1324.000	166
1325.000	170
1326.000	170
1327.000	165
1328.000	181
1329.000	173
1330.000	167
1331.000	169
1332.000	164
1333.000	170
1334.000	167
1335.000	174
1336.000	167
1337.000	168
1338.000	163
1339.000	175
1340.000	159
1341.000	168
1342.000	166
1343.000	170
1344.000	174
1345.000	171
1346.000	172
1347.000	171
1348.000	173
1349.000	180
1350.000	178
1351.000	181
1352.000	187
1353.000	182
1354.000	193
1355.000	199
1356.000	201
1357.000	211
1358.000	220
1359.000	238
1360.000	252
1361.000	278
1362.000	296
1363.000	321
1364.000	353
1365.000	400
1366.000	440
1367.000	496
1368.000	544
1369.000	590
1370.000	654
1371.000	722
1372.000	784
1373.000	827
1374.000	874
1375.000	920
1376.000	957
1377.000	998
1378.000	1030
1379.000	1048
1380.000	1039
1381.000	1016
1382.000	998
1383.000	972
1384.000	938
1385.000	901
1386.000	836
1387.000	794
1388.000	739
1389.000	656
1390.000	603
1391.000	544
1392.000	493
1393.000	430
1394.000	388
1395.000	358
1396.000	315
1397.000	283
1398.000	268
1399.000	239
1400.000	218
1401.000	207
1402.000	196
1403.000	189
1404.000	183
1405.000	180
1406.000	174
1407.000	165
1408.000	173
1409.000	168
1410.000	169
1411.000	166
1412.000	177
1413.000	172
1414.000	172
1415.000	168
1416.000	157
1417.000	163
1418.000	164
1419.000	167
1420.000	169
1421.000	169
1422.000	166
1423.000	174
1424.000	163
1425.000	166
1426.000	168
1427.000	168
1428.000	165
1429.000	162
1430.000	167
1431.000	165
1432.000	158
1433.000	171
1434.000	171
1435.000	169
1436.000	166
1437.000	173
1438.000	170
1439.000	163
1440.000	168
1441.000	168
1442.000	172
1443.000	175
1444.000	172
1445.000	173
1446.000	170
1447.000	165
1448.000	172
1449.000	171
1450.000	171
1451.000	175
1452.000	183
1453.000	175
1454.000	178
1455.000	180
1456.000	179
1457.000	180
1458.000	182
1459.000	174
1460.000	175
1461.000	172
1462.000	182
1463.000	172
1464.000	178
1465.000	178
1466.000	176
1467.000	175
1468.000	169
1469.000	177
1470.000	177
1471.000	178
1472.000	173
1473.000	173
1474.000	175
1475.000	173
1476.000	171
1477.000	171
1478.000	172
1479.000	173
1480.000	172
1481.000	172
1482.000	178
1483.000	164
1484.000	170
1485.000	178
1486.000	172
1487.000	167
1488.000	177
1489.000	169
1490.000	177
1491.000	174
1492.000	171
1493.000	178
1494.000	172
1495.000	175
1496.000	177
1497.000	177
1498.000	172
1499.000	174
1500.000	177
1501.000	169
1502.000	182
1503.000	178
1504.000	179
1505.000	187
1506.000	178
1507.000	178
1508.000	183
1509.000	178
1510.000	179
1511.000	177
1512.000	177
1513.000	179
1514.000	189
1515.000	182
1516.000	186
1517.000	189
1518.000	183
1519.000	191
1520.000	187
1521.000	187
1522.000	195
1523.000	200
1524.000	198
1525.000	210
1526.000	215
1527.000	207
1528.000	218
1529.000	225
1530.000	233
1531.000	246
1532.000	255
1533.000	268
1534.000	275
1535.000	280
1536.000	284
1537.000	299
1538.000	311
1539.000	333
1540.000	333
1541.000	337
1542.000	337
1543.000	353
1544.000	347
1545.000	352
1546.000	337
1547.000	355
1548.000	346
1549.000	337
1550.000	326
1551.000	320
1552.000	307
1553.000	296
1554.000	295
1555.000	277
1556.000	283
1557.000	275
1558.000	268
1559.000	269
1560.000	262
1561.000	270
1562.000	267
1563.000	269
1564.000	269
1565.000	271
1566.000	277
1567.000	274
1568.000	284
1569.000	285
1570.000	296
1571.000	304
1572.000	308
1573.000	316
1574.000	315
1575.000	329
1576.000	322
1577.000	330
1578.000	341
1579.000	347
1580.000	348
1581.000	372
1582.000	375
1583.000	376
1584.000	398
1585.000	406
1586.000	419
1587.000	427
1588.000	434
1589.000	452
1590.000	460
1591.000	479
1592.000	486
1593.000	500
1594.000	505
1595.000	517
1596.000	507
1597.000	532
1598.000	544
1599.000	537
1600.000	555
1601.000	570
1602.000	560
1603.000	572
1604.000	565
1605.000	580
1606.000	566
1607.000	580
1608.000	580
1609.000	571
1610.000	570
1611.000	579
1612.000	572
1613.000	558
1614.000	567
1615.000	549
1616.000	549
1617.000	558
1618.000	545
1619.000	540
1620.000	520
1621.000	512
1622.000	505
1623.000	494
1624.000	477
1625.000	475
1626.000	462
1627.000	451
1628.000	443
1629.000	425
1630.000	408
1631.000	422
1632.000	383
1633.000	371
1634.000	381
1635.000	354
1636.000	349
1637.000	340
1638.000	338
1639.000	321
1640.000	320
1641.000	313
1642.000	297
1643.000	292
1644.000	284
1645.000	274
1646.000	260
1647.000	258
1648.000	245
1649.000	247
1650.000	239
1651.000	221
1652.000	230
1653.000	229
1654.000	218
1655.000	209
1656.000	215
1657.000	197
1658.000	194
1659.000	197
1660.000	196
1661.000	191
1662.000	190
1663.000	184
1664.000	188
1665.000	183
1666.000	183
1667.000	176
1668.000	172
1669.000	171
1670.000	176
1671.000	176
1672.000	174
1673.000	179
1674.000	176
1675.000	182
1676.000	181
1677.000	192
1678.000	188
1679.000	198
1680.000	201
1681.000	219
1682.000	229
1683.000	239
1684.000	259
1685.000	271
1686.000	291
1687.000	316
1688.000	331
1689.000	344
1690.000	371
1691.000	396
1692.000	419
1693.000	433
1694.000	458
1695.000	478
1696.000	487
1697.000	519
1698.000	530
1699.000	526
1700.000	537
1701.000	555
1702.000	531
1703.000	531
1704.000	523
1705.000	530
1706.000	501
1707.000	491
1708.000	471
1709.000	444
1710.000	420
1711.000	397
1712.000	366
1713.000	353
1714.000	330
1715.000	299
1716.000	289
1717.000	260
1718.000	236
1719.000	229
1720.000	206
1721.000	196
1722.000	186
1723.000	177
1724.000	169
1725.000	156
1726.000	158
1727.000	150
1728.000	144
1729.000	136
1730.000	137
1731.000	138
1732.000	135
1733.000	140
1734.000	134
1735.000	135
1736.000	134
1737.000	135
1738.000	133
1739.000	134
1740.000	132
1741.000	136
1742.000	134
1743.000	134
1744.000	137
1745.000	131
1746.000	138
1747.000	134
1748.000	140
1749.000	138
1750.000	140
1751.000	137
1752.000	140
1753.000	141
1754.000	137
1755.000	146
1756.000	147
1757.000	147
1758.000	145
1759.000	148
1760.000	149
1761.000	148
1762.000	142
1763.000	153
1764.000	149
1765.000	148
1766.000	152
1767.000	150
1768.000	158
1769.000	161
1770.000	161
1771.000	161
1772.000	157
1773.000	162
1774.000	166
1775.000	164
1776.000	170
1777.000	176
1778.000	170
1779.000	173
1780.000	180
1781.000	175
1782.000	176
1783.000	177
1784.000	182
1785.000	179
1786.000	179
1787.000	190
1788.000	187
1789.000	187
1790.000	184
1791.000	187
1792.000	193
1793.000	186
1794.000	188
1795.000	192
1796.000	183
1797.000	183
1798.000	177
1799.000	189
1800.000	189
1801.000	187
1802.000	179
1803.000	179
1804.000	181
1805.000	181
1806.000	177
1807.000	171
1808.000	175
1809.000	171
1810.000	165
1811.000	163
1812.000	161
1813.000	165
1814.000	161
1815.000	157
1816.000	159
1817.000	159
1818.000	150
1819.000	149
1820.000	150
1821.000	148
1822.000	145
1823.000	152
1824.000	141
1825.000	139
1826.000	136
1827.000	132
1828.000	128
1829.000	130
1830.000	127
1831.000	127
1832.000	133
1833.000	119
1834.000	122
1835.000	118
1836.000	116
1837.000	117
1838.000	120
1839.000	114
1840.000	108
1841.000	108
1842.000	106
1843.000	102
1844.000	102
1845.000	103
1846.000	99
1847.000	95
1848.000	95
1849.000	102
1850.000	93
1851.000	93
1852.000	92
1853.000	87
1854.000	86
1855.000	90
1856.000	81
1857.000	88
1858.000	89
1859.000	85
1860.000	82
1861.000	83
1862.000	81
1863.000	81
1864.000	80
1865.000	83
1866.000	78
1867.000	84
1868.000	76
1869.000	70
1870.000	72
1871.000	76
1872.000	76
1873.000	77
1874.000	77
1875.000	72
1876.000	76
1877.000	74
1878.000	71
1879.000	71
1880.000	73
1881.000	74
1882.000	71
1883.000	74
1884.000	70
1885.000	72
1886.000	74
1887.000	76
1888.000	72
1889.000	70
1890.000	78
1891.000	74
1892.000	76
1893.000	82
1894.000	82
1895.000	77
1896.000	86
1897.000	82
1898.000	84
1899.000	92
1900.000	92
1901.000	101
1902.000	98
1903.000	99
1904.000	106
1905.000	107
1906.000	115
1907.000	112
1908.000	116
1909.000	119
1910.000	116
1911.000	119
1912.000	117
1913.000	120
1914.000	115
1915.000	117
1916.000	112
1917.000	113
1918.000	105
1919.000	104
1920.000	96
1921.000	93
1922.000	92
1923.000	89
1924.000	82
1925.000	81
1926.000	81
1927.000	75
1928.000	73
1929.000	74
1930.000	69
1931.000	71
1932.000	68
1933.000	70
1934.000	62
1935.000	67
1936.000	63
1937.000	67
1938.000	68
1939.000	68
1940.000	63
1941.000	63
1942.000	68
1943.000	67
1944.000	65
1945.000	68
1946.000	66
1947.000	64
1948.000	66
1949.000	64
1950.000	63
1951.000	69
1952.000	63
1953.000	59
1954.000	57
1955.000	57
1956.000	61
1957.000	54
1958.000	52
1959.000	56
1960.000	53
1961.000	52
1962.000	52
1963.000	53
1964.000	55
1965.000	52
1966.000	48
1967.000	52
1968.000	51
1969.000	49
1970.000	52
1971.000	51
1972.000	47
1973.000	50
1974.000	48
1975.000	50
1976.000	53
1977.000	49
1978.000	51
1979.000	54
1980.000	48
1981.000	44
1982.000	47
1983.000	49
1984.000	46
1985.000	47
1986.000	50
1987.000	50
1988.000	48
1989.000	48
1990.000	49
1991.000	47
1992.000	46
1993.000	50
1994.000	45
1995.000	45
1996.000	48
1997.000	47
1998.000	48
1999.000	49
2000.000	49
2001.000	48
2002.000	50
2003.000	48
2004.000	51
2005.000	46
2006.000	51
2007.000	46
2008.000	46
2009.000	46
2010.000	49
2011.000	44
2012.000	43
2013.000	46
2014.000	49
2015.000	43
2016.000	48
2017.000	46
2018.000	45
2019.000	49
2020.000	45
2021.000	45
2022.000	48
2023.000	46
2024.000	50
2025.000	47
2026.000	45
2027.000	45
2028.000	46
2029.000	48
2030.000	49
2031.000	46
2032.000	45
2033.000	45
2034.000	40
2035.000	46
2036.000	46
2037.000	43
2038.000	48
2039.000	46
2040.000	45
2041.000	48
2042.000	42
2043.000	43
2044.000	47
2045.000	45
2046.000	42
2047.000	39
2048.000	0
