Date:	23-Sep-20		Time:	11:32 PM		Version no:	0.00		Project name:	55		Sample name:	222		Section name:	section		Position	0.000000	mm	E0	0.000000	keV	E1	1.000000	keV/channel	sample surface	2.000000	cm	Tube anode:	Mo		Tube voltage:	30	kV	Tube current:	30	mA	gain	15		std. database			resultfile	result		matrix element	11		sample thickness	1.000000		air passage	0.560000	cm	comments	not in position		peaking_time	0.300000	m-sec	trigger_threshold	40.000000	V	mca_bin_width	2.000000	no:	number_mca_channels	2048.000000	no:	gap_time	2048.000000	m-sec	trigger_peaking_time	2048.000000	m-sec	GAINDAC	400		HIGHGAIN	400		TAURC	400		RCTAU	400		RCTAUFRAC	400		livetime	13.334824	seconds	runtime	15.000351	seconds	input_count_rate	47769.585089	cps	output_count_rate	42465.604889	cps	triggers	704307	seconds	events_in_run	618783	seconds	channel	content		1.000	0
2.000	0
3.000	0
4.000	0
5.000	0
6.000	0
7.000	0
8.000	0
9.000	0
10.000	0
11.000	0
12.000	0
13.000	0
14.000	0
15.000	0
16.000	0
17.000	0
18.000	0
19.000	0
20.000	0
21.000	0
22.000	0
23.000	0
24.000	0
25.000	0
26.000	0
27.000	0
28.000	0
29.000	0
30.000	0
31.000	0
32.000	0
33.000	0
34.000	0
35.000	0
36.000	0
37.000	0
38.000	0
39.000	1
40.000	0
41.000	0
42.000	0
43.000	0
44.000	0
45.000	0
46.000	0
47.000	0
48.000	0
49.000	1
50.000	1
51.000	2
52.000	3
53.000	2
54.000	4
55.000	5
56.000	7
57.000	10
58.000	14
59.000	21
60.000	22
61.000	23
62.000	28
63.000	31
64.000	31
65.000	30
66.000	28
67.000	27
68.000	29
69.000	25
70.000	26
71.000	26
72.000	23
73.000	25
74.000	24
75.000	25
76.000	27
77.000	25
78.000	23
79.000	25
80.000	23
81.000	22
82.000	27
83.000	28
84.000	26
85.000	26
86.000	27
87.000	26
88.000	26
89.000	25
90.000	24
91.000	25
92.000	22
93.000	22
94.000	19
95.000	21
96.000	24
97.000	22
98.000	19
99.000	23
100.000	21
101.000	20
102.000	22
103.000	20
104.000	20
105.000	20
106.000	20
107.000	20
108.000	22
109.000	17
110.000	17
111.000	21
112.000	20
113.000	16
114.000	19
115.000	18
116.000	20
117.000	17
118.000	20
119.000	19
120.000	18
121.000	19
122.000	17
123.000	16
124.000	15
125.000	16
126.000	16
127.000	18
128.000	17
129.000	16
130.000	16
131.000	16
132.000	17
133.000	15
134.000	14
135.000	16
136.000	15
137.000	15
138.000	18
139.000	18
140.000	17
141.000	21
142.000	21
143.000	26
144.000	25
145.000	27
146.000	25
147.000	28
148.000	26
149.000	21
150.000	20
151.000	18
152.000	17
153.000	17
154.000	19
155.000	15
156.000	17
157.000	15
158.000	15
159.000	13
160.000	17
161.000	14
162.000	15
163.000	18
164.000	19
165.000	22
166.000	27
167.000	31
168.000	42
169.000	42
170.000	45
171.000	45
172.000	46
173.000	43
174.000	38
175.000	32
176.000	31
177.000	30
178.000	26
179.000	32
180.000	32
181.000	41
182.000	49
183.000	60
184.000	80
185.000	99
186.000	139
187.000	174
188.000	219
189.000	255
190.000	272
191.000	287
192.000	268
193.000	255
194.000	213
195.000	168
196.000	130
197.000	93
198.000	66
199.000	46
200.000	32
201.000	25
202.000	21
203.000	19
204.000	16
205.000	17
206.000	16
207.000	18
208.000	17
209.000	17
210.000	18
211.000	18
212.000	18
213.000	21
214.000	19
215.000	22
216.000	27
217.000	28
218.000	37
219.000	40
220.000	44
221.000	51
222.000	58
223.000	55
224.000	54
225.000	52
226.000	44
227.000	38
228.000	33
229.000	27
230.000	24
231.000	22
232.000	20
233.000	17
234.000	15
235.000	14
236.000	16
237.000	14
238.000	13
239.000	16
240.000	16
241.000	14
242.000	14
243.000	16
244.000	16
245.000	16
246.000	20
247.000	23
248.000	29
249.000	41
250.000	54
251.000	66
252.000	85
253.000	111
254.000	137
255.000	155
256.000	170
257.000	173
258.000	166
259.000	156
260.000	130
261.000	108
262.000	94
263.000	73
264.000	56
265.000	40
266.000	31
267.000	27
268.000	27
269.000	22
270.000	23
271.000	29
272.000	26
273.000	30
274.000	30
275.000	31
276.000	34
277.000	33
278.000	33
279.000	34
280.000	34
281.000	34
282.000	35
283.000	43
284.000	49
285.000	57
286.000	68
287.000	75
288.000	82
289.000	90
290.000	85
291.000	85
292.000	80
293.000	74
294.000	64
295.000	54
296.000	45
297.000	40
298.000	31
299.000	28
300.000	27
301.000	24
302.000	25
303.000	24
304.000	25
305.000	27
306.000	27
307.000	29
308.000	32
309.000	32
310.000	36
311.000	40
312.000	42
313.000	42
314.000	55
315.000	62
316.000	75
317.000	90
318.000	112
319.000	143
320.000	178
321.000	203
322.000	228
323.000	240
324.000	265
325.000	259
326.000	252
327.000	222
328.000	203
329.000	163
330.000	134
331.000	102
332.000	82
333.000	58
334.000	49
335.000	43
336.000	40
337.000	39
338.000	42
339.000	44
340.000	47
341.000	57
342.000	69
343.000	92
344.000	115
345.000	167
346.000	230
347.000	356
348.000	540
349.000	860
350.000	1374
351.000	2123
352.000	3229
353.000	4738
354.000	6766
355.000	9210
356.000	12161
357.000	15198
358.000	18259
359.000	20816
360.000	22661
361.000	23584
362.000	23498
363.000	22220
364.000	20197
365.000	17376
366.000	14278
367.000	11269
368.000	8460
369.000	6054
370.000	4160
371.000	2764
372.000	1731
373.000	1079
374.000	661
375.000	414
376.000	276
377.000	206
378.000	197
379.000	211
380.000	246
381.000	333
382.000	439
383.000	599
384.000	797
385.000	1053
386.000	1381
387.000	1796
388.000	2192
389.000	2610
390.000	3018
391.000	3265
392.000	3498
393.000	3528
394.000	3382
395.000	3165
396.000	2811
397.000	2410
398.000	1992
399.000	1527
400.000	1166
401.000	818
402.000	571
403.000	378
404.000	256
405.000	156
406.000	90
407.000	58
408.000	35
409.000	24
410.000	15
411.000	10
412.000	10
413.000	8
414.000	8
415.000	9
416.000	7
417.000	8
418.000	7
419.000	8
420.000	8
421.000	7
422.000	9
423.000	7
424.000	8
425.000	9
426.000	9
427.000	11
428.000	15
429.000	16
430.000	19
431.000	25
432.000	31
433.000	39
434.000	58
435.000	68
436.000	78
437.000	92
438.000	102
439.000	117
440.000	117
441.000	122
442.000	120
443.000	116
444.000	107
445.000	91
446.000	81
447.000	70
448.000	53
449.000	45
450.000	41
451.000	35
452.000	31
453.000	29
454.000	28
455.000	25
456.000	20
457.000	22
458.000	22
459.000	21
460.000	17
461.000	16
462.000	16
463.000	16
464.000	15
465.000	14
466.000	13
467.000	13
468.000	15
469.000	13
470.000	16
471.000	13
472.000	17
473.000	19
474.000	21
475.000	22
476.000	22
477.000	24
478.000	27
479.000	29
480.000	32
481.000	31
482.000	34
483.000	36
484.000	33
485.000	32
486.000	26
487.000	28
488.000	28
489.000	24
490.000	20
491.000	21
492.000	16
493.000	16
494.000	15
495.000	15
496.000	15
497.000	12
498.000	16
499.000	15
500.000	15
501.000	15
502.000	17
503.000	16
504.000	15
505.000	14
506.000	16
507.000	14
508.000	18
509.000	18
510.000	17
511.000	18
512.000	20
513.000	21
514.000	22
515.000	22
516.000	21
517.000	21
518.000	25
519.000	24
520.000	26
521.000	27
522.000	33
523.000	30
524.000	34
525.000	34
526.000	37
527.000	39
528.000	39
529.000	41
530.000	39
531.000	38
532.000	35
533.000	35
534.000	32
535.000	32
536.000	28
537.000	26
538.000	22
539.000	25
540.000	22
541.000	22
542.000	20
543.000	19
544.000	18
545.000	21
546.000	20
547.000	19
548.000	22
549.000	21
550.000	23
551.000	21
552.000	22
553.000	22
554.000	26
555.000	23
556.000	28
557.000	27
558.000	28
559.000	29
560.000	30
561.000	33
562.000	31
563.000	33
564.000	37
565.000	38
566.000	39
567.000	48
568.000	49
569.000	55
570.000	65
571.000	68
572.000	71
573.000	78
574.000	85
575.000	84
576.000	83
577.000	79
578.000	79
579.000	77
580.000	70
581.000	72
582.000	59
583.000	53
584.000	49
585.000	41
586.000	39
587.000	35
588.000	35
589.000	26
590.000	26
591.000	25
592.000	27
593.000	22
594.000	27
595.000	25
596.000	25
597.000	28
598.000	30
599.000	29
600.000	29
601.000	30
602.000	32
603.000	33
604.000	39
605.000	38
606.000	46
607.000	57
608.000	73
609.000	96
610.000	130
611.000	182
612.000	249
613.000	343
614.000	472
615.000	618
616.000	798
617.000	1060
618.000	1294
619.000	1614
620.000	1861
621.000	2181
622.000	2422
623.000	2648
624.000	2786
625.000	2867
626.000	2841
627.000	2737
628.000	2554
629.000	2349
630.000	2050
631.000	1781
632.000	1483
633.000	1188
634.000	976
635.000	735
636.000	560
637.000	424
638.000	305
639.000	232
640.000	172
641.000	123
642.000	98
643.000	83
644.000	69
645.000	61
646.000	56
647.000	51
648.000	53
649.000	51
650.000	47
651.000	50
652.000	49
653.000	51
654.000	52
655.000	51
656.000	54
657.000	51
658.000	50
659.000	52
660.000	52
661.000	57
662.000	56
663.000	60
664.000	54
665.000	61
666.000	63
667.000	61
668.000	66
669.000	71
670.000	68
671.000	78
672.000	78
673.000	83
674.000	92
675.000	102
676.000	109
677.000	143
678.000	153
679.000	185
680.000	208
681.000	253
682.000	289
683.000	333
684.000	374
685.000	410
686.000	453
687.000	476
688.000	497
689.000	495
690.000	490
691.000	485
692.000	456
693.000	421
694.000	377
695.000	343
696.000	301
697.000	253
698.000	206
699.000	176
700.000	151
701.000	130
702.000	106
703.000	90
704.000	78
705.000	71
706.000	64
707.000	60
708.000	57
709.000	62
710.000	56
711.000	62
712.000	59
713.000	67
714.000	64
715.000	65
716.000	75
717.000	80
718.000	76
719.000	81
720.000	85
721.000	88
722.000	88
723.000	92
724.000	88
725.000	95
726.000	92
727.000	88
728.000	95
729.000	92
730.000	89
731.000	92
732.000	88
733.000	87
734.000	82
735.000	80
736.000	74
737.000	77
738.000	75
739.000	70
740.000	71
741.000	69
742.000	67
743.000	66
744.000	69
745.000	70
746.000	66
747.000	71
748.000	67
749.000	71
750.000	68
751.000	68
752.000	67
753.000	70
754.000	69
755.000	74
756.000	76
757.000	73
758.000	74
759.000	65
760.000	71
761.000	73
762.000	74
763.000	70
764.000	72
765.000	72
766.000	66
767.000	75
768.000	72
769.000	75
770.000	77
771.000	82
772.000	82
773.000	83
774.000	85
775.000	91
776.000	91
777.000	98
778.000	96
779.000	102
780.000	104
781.000	106
782.000	101
783.000	112
784.000	124
785.000	117
786.000	121
787.000	125
788.000	129
789.000	130
790.000	133
791.000	130
792.000	135
793.000	131
794.000	134
795.000	136
796.000	136
797.000	137
798.000	139
799.000	144
800.000	140
801.000	145
802.000	139
803.000	150
804.000	149
805.000	160
806.000	157
807.000	171
808.000	183
809.000	183
810.000	201
811.000	210
812.000	225
813.000	245
814.000	260
815.000	274
816.000	287
817.000	299
818.000	300
819.000	312
820.000	309
821.000	304
822.000	295
823.000	288
824.000	265
825.000	248
826.000	244
827.000	217
828.000	212
829.000	184
830.000	173
831.000	157
832.000	151
833.000	140
834.000	142
835.000	131
836.000	122
837.000	122
838.000	123
839.000	121
840.000	126
841.000	127
842.000	130
843.000	128
844.000	126
845.000	125
846.000	125
847.000	121
848.000	130
849.000	123
850.000	113
851.000	121
852.000	116
853.000	112
854.000	123
855.000	116
856.000	119
857.000	116
858.000	111
859.000	117
860.000	113
861.000	117
862.000	119
863.000	112
864.000	119
865.000	114
866.000	109
867.000	115
868.000	112
869.000	112
870.000	114
871.000	111
872.000	112
873.000	116
874.000	113
875.000	117
876.000	115
877.000	112
878.000	110
879.000	113
880.000	114
881.000	111
882.000	106
883.000	115
884.000	115
885.000	116
886.000	116
887.000	116
888.000	118
889.000	122
890.000	122
891.000	121
892.000	122
893.000	117
894.000	124
895.000	124
896.000	126
897.000	130
898.000	139
899.000	135
900.000	139
901.000	142
902.000	144
903.000	144
904.000	143
905.000	151
906.000	157
907.000	156
908.000	163
909.000	156
910.000	159
911.000	163
912.000	163
913.000	162
914.000	169
915.000	168
916.000	174
917.000	165
918.000	167
919.000	177
920.000	172
921.000	181
922.000	178
923.000	178
924.000	181
925.000	188
926.000	188
927.000	189
928.000	190
929.000	191
930.000	198
931.000	196
932.000	196
933.000	206
934.000	210
935.000	222
936.000	225
937.000	231
938.000	245
939.000	240
940.000	249
941.000	256
942.000	258
943.000	262
944.000	258
945.000	252
946.000	254
947.000	252
948.000	239
949.000	246
950.000	222
951.000	231
952.000	215
953.000	201
954.000	197
955.000	191
956.000	190
957.000	190
958.000	179
959.000	180
960.000	180
961.000	175
962.000	172
963.000	174
964.000	174
965.000	180
966.000	183
967.000	182
968.000	181
969.000	182
970.000	181
971.000	186
972.000	186
973.000	185
974.000	184
975.000	173
976.000	177
977.000	176
978.000	172
979.000	166
980.000	165
981.000	165
982.000	163
983.000	163
984.000	156
985.000	145
986.000	152
987.000	141
988.000	137
989.000	144
990.000	148
991.000	143
992.000	138
993.000	132
994.000	140
995.000	144
996.000	130
997.000	134
998.000	135
999.000	131
1000.000	132
1001.000	130
1002.000	132
1003.000	131
1004.000	130
1005.000	130
1006.000	129
1007.000	139
1008.000	136
1009.000	131
1010.000	133
1011.000	137
1012.000	127
1013.000	133
1014.000	135
1015.000	133
1016.000	137
1017.000	132
1018.000	139
1019.000	137
1020.000	134
1021.000	133
1022.000	134
1023.000	130
1024.000	140
1025.000	134
1026.000	145
1027.000	145
1028.000	138
1029.000	136
1030.000	137
1031.000	142
1032.000	144
1033.000	140
1034.000	138
1035.000	140
1036.000	138
1037.000	145
1038.000	146
1039.000	137
1040.000	149
1041.000	135
1042.000	145
1043.000	139
1044.000	146
1045.000	148
1046.000	148
1047.000	147
1048.000	149
1049.000	152
1050.000	151
1051.000	149
1052.000	147
1053.000	147
1054.000	158
1055.000	148
1056.000	151
1057.000	156
1058.000	153
1059.000	158
1060.000	159
1061.000	163
1062.000	154
1063.000	165
1064.000	149
1065.000	161
1066.000	156
1067.000	158
1068.000	152
1069.000	154
1070.000	162
1071.000	153
1072.000	153
1073.000	154
1074.000	152
1075.000	153
1076.000	158
1077.000	162
1078.000	161
1079.000	151
1080.000	158
1081.000	159
1082.000	153
1083.000	158
1084.000	158
1085.000	151
1086.000	157
1087.000	155
1088.000	160
1089.000	155
1090.000	166
1091.000	164
1092.000	159
1093.000	160
1094.000	165
1095.000	165
1096.000	166
1097.000	170
1098.000	168
1099.000	169
1100.000	167
1101.000	172
1102.000	173
1103.000	170
1104.000	173
1105.000	161
1106.000	167
1107.000	163
1108.000	170
1109.000	167
1110.000	162
1111.000	163
1112.000	162
1113.000	159
1114.000	156
1115.000	160
1116.000	158
1117.000	166
1118.000	160
1119.000	156
1120.000	160
1121.000	156
1122.000	156
1123.000	163
1124.000	163
1125.000	165
1126.000	158
1127.000	156
1128.000	158
1129.000	162
1130.000	165
1131.000	166
1132.000	162
1133.000	165
1134.000	164
1135.000	173
1136.000	153
1137.000	159
1138.000	165
1139.000	164
1140.000	169
1141.000	167
1142.000	163
1143.000	166
1144.000	164
1145.000	164
1146.000	157
1147.000	165
1148.000	169
1149.000	165
1150.000	167
1151.000	160
1152.000	167
1153.000	174
1154.000	170
1155.000	178
1156.000	170
1157.000	177
1158.000	176
1159.000	178
1160.000	177
1161.000	180
1162.000	179
1163.000	182
1164.000	178
1165.000	180
1166.000	182
1167.000	177
1168.000	172
1169.000	161
1170.000	165
1171.000	169
1172.000	165
1173.000	169
1174.000	170
1175.000	163
1176.000	164
1177.000	162
1178.000	168
1179.000	170
1180.000	162
1181.000	160
1182.000	160
1183.000	158
1184.000	154
1185.000	154
1186.000	151
1187.000	156
1188.000	149
1189.000	157
1190.000	160
1191.000	158
1192.000	160
1193.000	154
1194.000	163
1195.000	152
1196.000	163
1197.000	162
1198.000	158
1199.000	162
1200.000	164
1201.000	155
1202.000	159
1203.000	154
1204.000	161
1205.000	161
1206.000	165
1207.000	163
1208.000	158
1209.000	162
1210.000	162
1211.000	168
1212.000	167
1213.000	171
1214.000	159
1215.000	158
1216.000	160
1217.000	161
1218.000	164
1219.000	169
1220.000	161
1221.000	163
1222.000	161
1223.000	165
1224.000	167
1225.000	162
1226.000	165
1227.000	163
1228.000	164
1229.000	171
1230.000	169
1231.000	170
1232.000	166
1233.000	171
1234.000	168
1235.000	167
1236.000	168
1237.000	170
1238.000	167
1239.000	167
1240.000	168
1241.000	167
1242.000	167
1243.000	168
1244.000	164
1245.000	164
1246.000	164
1247.000	163
1248.000	170
1249.000	166
1250.000	161
1251.000	164
1252.000	170
1253.000	165
1254.000	173
1255.000	166
1256.000	162
1257.000	159
1258.000	164
1259.000	169
1260.000	167
1261.000	166
1262.000	161
1263.000	163
1264.000	163
1265.000	162
1266.000	167
1267.000	164
1268.000	164
1269.000	161
1270.000	168
1271.000	168
1272.000	162
1273.000	154
1274.000	169
1275.000	162
1276.000	169
1277.000	154
1278.000	167
1279.000	167
1280.000	165
1281.000	157
1282.000	168
1283.000	166
1284.000	165
1285.000	171
1286.000	163
1287.000	170
1288.000	168
1289.000	160
1290.000	170
1291.000	170
1292.000	167
1293.000	166
1294.000	172
1295.000	179
1296.000	184
1297.000	175
1298.000	178
1299.000	182
1300.000	180
1301.000	176
1302.000	173
1303.000	187
1304.000	183
1305.000	189
1306.000	184
1307.000	187
1308.000	177
1309.000	182
1310.000	181
1311.000	178
1312.000	170
1313.000	172
1314.000	175
1315.000	179
1316.000	172
1317.000	179
1318.000	176
1319.000	175
1320.000	167
1321.000	166
1322.000	171
1323.000	167
1324.000	173
1325.000	168
1326.000	166
1327.000	171
1328.000	171
1329.000	172
1330.000	170
1331.000	176
1332.000	174
1333.000	162
1334.000	170
1335.000	172
1336.000	165
1337.000	172
1338.000	171
1339.000	173
1340.000	175
1341.000	173
1342.000	174
1343.000	167
1344.000	176
1345.000	173
1346.000	172
1347.000	176
1348.000	175
1349.000	177
1350.000	176
1351.000	181
1352.000	180
1353.000	179
1354.000	192
1355.000	195
1356.000	193
1357.000	208
1358.000	216
1359.000	230
1360.000	249
1361.000	271
1362.000	294
1363.000	326
1364.000	351
1365.000	380
1366.000	426
1367.000	472
1368.000	535
1369.000	591
1370.000	648
1371.000	701
1372.000	758
1373.000	803
1374.000	863
1375.000	910
1376.000	955
1377.000	981
1378.000	1004
1379.000	1012
1380.000	1046
1381.000	1011
1382.000	985
1383.000	977
1384.000	917
1385.000	873
1386.000	821
1387.000	764
1388.000	717
1389.000	649
1390.000	598
1391.000	551
1392.000	489
1393.000	430
1394.000	387
1395.000	348
1396.000	312
1397.000	280
1398.000	258
1399.000	238
1400.000	219
1401.000	211
1402.000	192
1403.000	189
1404.000	173
1405.000	177
1406.000	180
1407.000	170
1408.000	170
1409.000	173
1410.000	169
1411.000	164
1412.000	168
1413.000	174
1414.000	168
1415.000	165
1416.000	167
1417.000	171
1418.000	167
1419.000	166
1420.000	165
1421.000	170
1422.000	163
1423.000	169
1424.000	166
1425.000	167
1426.000	172
1427.000	167
1428.000	170
1429.000	163
1430.000	167
1431.000	172
1432.000	165
1433.000	169
1434.000	170
1435.000	169
1436.000	165
1437.000	173
1438.000	173
1439.000	169
1440.000	171
1441.000	174
1442.000	169
1443.000	169
1444.000	175
1445.000	166
1446.000	173
1447.000	179
1448.000	174
1449.000	170
1450.000	178
1451.000	173
1452.000	173
1453.000	181
1454.000	184
1455.000	180
1456.000	182
1457.000	179
1458.000	179
1459.000	182
1460.000	175
1461.000	175
1462.000	179
1463.000	177
1464.000	174
1465.000	176
1466.000	169
1467.000	186
1468.000	180
1469.000	179
1470.000	171
1471.000	177
1472.000	172
1473.000	175
1474.000	174
1475.000	175
1476.000	175
1477.000	174
1478.000	174
1479.000	175
1480.000	180
1481.000	174
1482.000	180
1483.000	178
1484.000	177
1485.000	172
1486.000	178
1487.000	173
1488.000	171
1489.000	178
1490.000	171
1491.000	179
1492.000	166
1493.000	176
1494.000	178
1495.000	176
1496.000	175
1497.000	176
1498.000	176
1499.000	169
1500.000	177
1501.000	179
1502.000	169
1503.000	177
1504.000	176
1505.000	173
1506.000	180
1507.000	183
1508.000	181
1509.000	184
1510.000	178
1511.000	178
1512.000	179
1513.000	182
1514.000	190
1515.000	178
1516.000	183
1517.000	186
1518.000	185
1519.000	182
1520.000	185
1521.000	192
1522.000	194
1523.000	198
1524.000	210
1525.000	197
1526.000	206
1527.000	212
1528.000	220
1529.000	219
1530.000	235
1531.000	241
1532.000	249
1533.000	261
1534.000	270
1535.000	291
1536.000	286
1537.000	309
1538.000	305
1539.000	323
1540.000	333
1541.000	343
1542.000	336
1543.000	335
1544.000	337
1545.000	335
1546.000	356
1547.000	340
1548.000	335
1549.000	324
1550.000	326
1551.000	323
1552.000	315
1553.000	298
1554.000	300
1555.000	294
1556.000	279
1557.000	274
1558.000	280
1559.000	270
1560.000	278
1561.000	271
1562.000	266
1563.000	269
1564.000	269
1565.000	269
1566.000	271
1567.000	287
1568.000	294
1569.000	294
1570.000	300
1571.000	298
1572.000	314
1573.000	307
1574.000	319
1575.000	324
1576.000	333
1577.000	350
1578.000	360
1579.000	361
1580.000	370
1581.000	378
1582.000	370
1583.000	389
1584.000	413
1585.000	423
1586.000	421
1587.000	431
1588.000	453
1589.000	449
1590.000	477
1591.000	484
1592.000	485
1593.000	498
1594.000	503
1595.000	518
1596.000	524
1597.000	532
1598.000	551
1599.000	549
1600.000	543
1601.000	558
1602.000	578
1603.000	583
1604.000	580
1605.000	568
1606.000	585
1607.000	587
1608.000	585
1609.000	590
1610.000	595
1611.000	587
1612.000	567
1613.000	579
1614.000	563
1615.000	560
1616.000	557
1617.000	548
1618.000	548
1619.000	542
1620.000	520
1621.000	523
1622.000	525
1623.000	487
1624.000	482
1625.000	477
1626.000	462
1627.000	455
1628.000	431
1629.000	431
1630.000	426
1631.000	403
1632.000	393
1633.000	398
1634.000	373
1635.000	365
1636.000	347
1637.000	346
1638.000	333
1639.000	320
1640.000	321
1641.000	311
1642.000	302
1643.000	301
1644.000	285
1645.000	279
1646.000	269
1647.000	253
1648.000	252
1649.000	250
1650.000	243
1651.000	230
1652.000	231
1653.000	225
1654.000	220
1655.000	214
1656.000	214
1657.000	206
1658.000	211
1659.000	193
1660.000	191
1661.000	192
1662.000	196
1663.000	194
1664.000	185
1665.000	180
1666.000	186
1667.000	180
1668.000	177
1669.000	176
1670.000	174
1671.000	179
1672.000	167
1673.000	169
1674.000	176
1675.000	181
1676.000	183
1677.000	189
1678.000	195
1679.000	203
1680.000	206
1681.000	214
1682.000	231
1683.000	249
1684.000	261
1685.000	278
1686.000	286
1687.000	296
1688.000	334
1689.000	348
1690.000	377
1691.000	386
1692.000	417
1693.000	425
1694.000	470
1695.000	485
1696.000	496
1697.000	509
1698.000	514
1699.000	525
1700.000	535
1701.000	532
1702.000	532
1703.000	532
1704.000	532
1705.000	527
1706.000	509
1707.000	494
1708.000	474
1709.000	463
1710.000	424
1711.000	400
1712.000	375
1713.000	349
1714.000	329
1715.000	303
1716.000	283
1717.000	266
1718.000	246
1719.000	219
1720.000	209
1721.000	206
1722.000	188
1723.000	177
1724.000	170
1725.000	165
1726.000	156
1727.000	151
1728.000	149
1729.000	142
1730.000	143
1731.000	139
1732.000	137
1733.000	141
1734.000	138
1735.000	141
1736.000	135
1737.000	139
1738.000	139
1739.000	140
1740.000	137
1741.000	134
1742.000	142
1743.000	140
1744.000	133
1745.000	134
1746.000	129
1747.000	140
1748.000	137
1749.000	142
1750.000	142
1751.000	147
1752.000	142
1753.000	144
1754.000	141
1755.000	147
1756.000	146
1757.000	149
1758.000	141
1759.000	148
1760.000	149
1761.000	147
1762.000	161
1763.000	151
1764.000	154
1765.000	150
1766.000	166
1767.000	160
1768.000	160
1769.000	168
1770.000	165
1771.000	169
1772.000	169
1773.000	166
1774.000	169
1775.000	177
1776.000	179
1777.000	172
1778.000	184
1779.000	180
1780.000	180
1781.000	179
1782.000	176
1783.000	178
1784.000	182
1785.000	183
1786.000	193
1787.000	193
1788.000	178
1789.000	186
1790.000	186
1791.000	186
1792.000	186
1793.000	184
1794.000	191
1795.000	186
1796.000	186
1797.000	186
1798.000	184
1799.000	188
1800.000	186
1801.000	186
1802.000	189
1803.000	179
1804.000	183
1805.000	182
1806.000	176
1807.000	177
1808.000	176
1809.000	168
1810.000	171
1811.000	170
1812.000	163
1813.000	167
1814.000	165
1815.000	162
1816.000	159
1817.000	150
1818.000	151
1819.000	152
1820.000	154
1821.000	146
1822.000	150
1823.000	150
1824.000	131
1825.000	137
1826.000	134
1827.000	134
1828.000	124
1829.000	133
1830.000	127
1831.000	129
1832.000	127
1833.000	122
1834.000	118
1835.000	117
1836.000	121
1837.000	112
1838.000	107
1839.000	113
1840.000	117
1841.000	104
1842.000	104
1843.000	109
1844.000	103
1845.000	99
1846.000	103
1847.000	101
1848.000	100
1849.000	98
1850.000	100
1851.000	92
1852.000	88
1853.000	92
1854.000	90
1855.000	92
1856.000	87
1857.000	88
1858.000	87
1859.000	85
1860.000	86
1861.000	83
1862.000	88
1863.000	80
1864.000	84
1865.000	78
1866.000	82
1867.000	78
1868.000	79
1869.000	79
1870.000	77
1871.000	80
1872.000	77
1873.000	77
1874.000	75
1875.000	70
1876.000	71
1877.000	77
1878.000	72
1879.000	75
1880.000	71
1881.000	72
1882.000	75
1883.000	69
1884.000	74
1885.000	72
1886.000	74
1887.000	72
1888.000	74
1889.000	74
1890.000	73
1891.000	76
1892.000	77
1893.000	79
1894.000	78
1895.000	83
1896.000	83
1897.000	87
1898.000	86
1899.000	90
1900.000	92
1901.000	96
1902.000	106
1903.000	104
1904.000	105
1905.000	109
1906.000	116
1907.000	113
1908.000	115
1909.000	115
1910.000	116
1911.000	122
1912.000	119
1913.000	122
1914.000	123
1915.000	112
1916.000	107
1917.000	110
1918.000	107
1919.000	103
1920.000	100
1921.000	94
1922.000	92
1923.000	88
1924.000	84
1925.000	83
1926.000	78
1927.000	81
1928.000	76
1929.000	75
1930.000	72
1931.000	68
1932.000	71
1933.000	69
1934.000	69
1935.000	69
1936.000	67
1937.000	66
1938.000	67
1939.000	64
1940.000	69
1941.000	66
1942.000	68
1943.000	70
1944.000	66
1945.000	64
1946.000	66
1947.000	64
1948.000	65
1949.000	63
1950.000	67
1951.000	62
1952.000	59
1953.000	61
1954.000	61
1955.000	57
1956.000	60
1957.000	58
1958.000	53
1959.000	54
1960.000	57
1961.000	56
1962.000	57
1963.000	51
1964.000	49
1965.000	53
1966.000	48
1967.000	55
1968.000	54
1969.000	54
1970.000	51
1971.000	52
1972.000	52
1973.000	47
1974.000	49
1975.000	48
1976.000	50
1977.000	50
1978.000	53
1979.000	47
1980.000	52
1981.000	49
1982.000	51
1983.000	51
1984.000	49
1985.000	54
1986.000	49
1987.000	48
1988.000	52
1989.000	51
1990.000	52
1991.000	47
1992.000	49
1993.000	45
1994.000	47
1995.000	48
1996.000	50
1997.000	49
1998.000	50
1999.000	49
2000.000	47
2001.000	49
2002.000	50
2003.000	48
2004.000	45
2005.000	48
2006.000	46
2007.000	46
2008.000	51
2009.000	50
2010.000	50
2011.000	46
2012.000	46
2013.000	50
2014.000	44
2015.000	48
2016.000	48
2017.000	45
2018.000	49
2019.000	46
2020.000	44
2021.000	48
2022.000	46
2023.000	46
2024.000	47
2025.000	47
2026.000	42
2027.000	48
2028.000	45
2029.000	46
2030.000	47
2031.000	48
2032.000	46
2033.000	45
2034.000	44
2035.000	44
2036.000	45
2037.000	45
2038.000	43
2039.000	45
2040.000	44
2041.000	44
2042.000	47
2043.000	48
2044.000	43
2045.000	45
2046.000	43
2047.000	44
2048.000	0
