Date:	23-Sep-20		Time:	11:32 PM		Version no:	0.00		Project name:	55		Sample name:	222		Section name:	section		Position	0.000000	mm	E0	0.000000	keV	E1	1.000000	keV/channel	sample surface	2.000000	cm	Tube anode:	Mo		Tube voltage:	30	kV	Tube current:	30	mA	gain	15		std. database			resultfile	result		matrix element	11		sample thickness	1.000000		air passage	0.560000	cm	comments	not in position		peaking_time	0.300000	m-sec	trigger_threshold	40.000000	V	mca_bin_width	2.000000	no:	number_mca_channels	2048.000000	no:	gap_time	2048.000000	m-sec	trigger_peaking_time	2048.000000	m-sec	GAINDAC	400		HIGHGAIN	400		TAURC	400		RCTAU	400		RCTAUFRAC	400		livetime	13.334824	seconds	runtime	15.000351	seconds	input_count_rate	47769.585089	cps	output_count_rate	42465.604889	cps	triggers	704307	seconds	events_in_run	618783	seconds	channel	content		1.000	0
2.000	0
3.000	0
4.000	0
5.000	0
6.000	0
7.000	0
8.000	0
9.000	0
10.000	0
11.000	0
12.000	0
13.000	0
14.000	0
15.000	0
16.000	0
17.000	0
18.000	0
19.000	0
20.000	0
21.000	0
22.000	0
23.000	0
24.000	0
25.000	0
26.000	0
27.000	0
28.000	0
29.000	0
30.000	0
31.000	1
32.000	0
33.000	0
34.000	0
35.000	0
36.000	0
37.000	0
38.000	0
39.000	1
40.000	0
41.000	0
42.000	0
43.000	0
44.000	0
45.000	1
46.000	1
47.000	0
48.000	0
49.000	1
50.000	1
51.000	2
52.000	2
53.000	2
54.000	3
55.000	5
56.000	5
57.000	11
58.000	11
59.000	18
60.000	25
61.000	28
62.000	30
63.000	31
64.000	33
65.000	33
66.000	30
67.000	29
68.000	28
69.000	25
70.000	24
71.000	27
72.000	28
73.000	26
74.000	30
75.000	25
76.000	25
77.000	26
78.000	23
79.000	26
80.000	26
81.000	22
82.000	25
83.000	29
84.000	24
85.000	26
86.000	27
87.000	26
88.000	25
89.000	23
90.000	22
91.000	23
92.000	24
93.000	23
94.000	21
95.000	21
96.000	19
97.000	20
98.000	23
99.000	19
100.000	20
101.000	23
102.000	22
103.000	22
104.000	19
105.000	19
106.000	23
107.000	21
108.000	17
109.000	18
110.000	19
111.000	19
112.000	20
113.000	18
114.000	19
115.000	18
116.000	19
117.000	22
118.000	19
119.000	19
120.000	20
121.000	19
122.000	16
123.000	20
124.000	17
125.000	18
126.000	18
127.000	18
128.000	16
129.000	16
130.000	16
131.000	17
132.000	18
133.000	18
134.000	17
135.000	17
136.000	17
137.000	16
138.000	14
139.000	16
140.000	17
141.000	20
142.000	22
143.000	23
144.000	22
145.000	23
146.000	22
147.000	23
148.000	22
149.000	20
150.000	21
151.000	18
152.000	17
153.000	17
154.000	16
155.000	15
156.000	14
157.000	14
158.000	15
159.000	13
160.000	17
161.000	13
162.000	13
163.000	14
164.000	15
165.000	17
166.000	21
167.000	21
168.000	24
169.000	27
170.000	31
171.000	29
172.000	27
173.000	28
174.000	27
175.000	24
176.000	24
177.000	25
178.000	26
179.000	28
180.000	31
181.000	38
182.000	47
183.000	61
184.000	78
185.000	101
186.000	137
187.000	174
188.000	221
189.000	253
190.000	284
191.000	283
192.000	276
193.000	253
194.000	220
195.000	168
196.000	132
197.000	94
198.000	65
199.000	43
200.000	33
201.000	25
202.000	22
203.000	18
204.000	16
205.000	19
206.000	18
207.000	17
208.000	16
209.000	18
210.000	18
211.000	19
212.000	17
213.000	22
214.000	21
215.000	26
216.000	27
217.000	31
218.000	35
219.000	40
220.000	46
221.000	49
222.000	56
223.000	51
224.000	58
225.000	55
226.000	47
227.000	43
228.000	33
229.000	31
230.000	27
231.000	23
232.000	18
233.000	17
234.000	15
235.000	14
236.000	15
237.000	13
238.000	13
239.000	13
240.000	14
241.000	13
242.000	16
243.000	17
244.000	16
245.000	18
246.000	19
247.000	25
248.000	25
249.000	39
250.000	52
251.000	65
252.000	85
253.000	110
254.000	130
255.000	155
256.000	162
257.000	166
258.000	167
259.000	151
260.000	134
261.000	108
262.000	90
263.000	69
264.000	52
265.000	38
266.000	33
267.000	26
268.000	20
269.000	22
270.000	24
271.000	23
272.000	27
273.000	27
274.000	30
275.000	33
276.000	34
277.000	34
278.000	32
279.000	35
280.000	32
281.000	32
282.000	34
283.000	41
284.000	46
285.000	58
286.000	65
287.000	77
288.000	82
289.000	85
290.000	87
291.000	81
292.000	80
293.000	68
294.000	62
295.000	56
296.000	44
297.000	36
298.000	32
299.000	26
300.000	26
301.000	23
302.000	23
303.000	24
304.000	23
305.000	26
306.000	27
307.000	27
308.000	32
309.000	37
310.000	34
311.000	34
312.000	39
313.000	40
314.000	46
315.000	50
316.000	56
317.000	58
318.000	71
319.000	82
320.000	99
321.000	111
322.000	132
323.000	138
324.000	147
325.000	139
326.000	127
327.000	119
328.000	109
329.000	92
330.000	76
331.000	60
332.000	52
333.000	39
334.000	38
335.000	33
336.000	33
337.000	36
338.000	37
339.000	41
340.000	48
341.000	64
342.000	70
343.000	86
344.000	114
345.000	158
346.000	227
347.000	352
348.000	523
349.000	854
350.000	1371
351.000	2134
352.000	3255
353.000	4809
354.000	6844
355.000	9302
356.000	12176
357.000	15342
358.000	18315
359.000	20843
360.000	22885
361.000	23784
362.000	23654
363.000	22409
364.000	20270
365.000	17413
366.000	14447
367.000	11324
368.000	8522
369.000	6112
370.000	4191
371.000	2760
372.000	1772
373.000	1079
374.000	666
375.000	410
376.000	269
377.000	221
378.000	193
379.000	209
380.000	240
381.000	327
382.000	438
383.000	606
384.000	827
385.000	1099
386.000	1436
387.000	1825
388.000	2248
389.000	2681
390.000	3101
391.000	3390
392.000	3571
393.000	3607
394.000	3524
395.000	3241
396.000	2898
397.000	2480
398.000	2010
399.000	1575
400.000	1190
401.000	861
402.000	596
403.000	390
404.000	253
405.000	156
406.000	95
407.000	58
408.000	35
409.000	20
410.000	16
411.000	13
412.000	11
413.000	10
414.000	8
415.000	7
416.000	6
417.000	7
418.000	8
419.000	8
420.000	8
421.000	7
422.000	8
423.000	8
424.000	9
425.000	9
426.000	8
427.000	10
428.000	10
429.000	14
430.000	16
431.000	17
432.000	23
433.000	30
434.000	36
435.000	44
436.000	54
437.000	62
438.000	74
439.000	72
440.000	82
441.000	81
442.000	82
443.000	71
444.000	67
445.000	63
446.000	55
447.000	47
448.000	40
449.000	33
450.000	28
451.000	25
452.000	22
453.000	20
454.000	16
455.000	18
456.000	17
457.000	16
458.000	16
459.000	14
460.000	17
461.000	15
462.000	15
463.000	13
464.000	15
465.000	13
466.000	11
467.000	12
468.000	12
469.000	13
470.000	14
471.000	15
472.000	13
473.000	14
474.000	17
475.000	17
476.000	18
477.000	21
478.000	19
479.000	24
480.000	25
481.000	23
482.000	27
483.000	25
484.000	26
485.000	21
486.000	24
487.000	21
488.000	19
489.000	20
490.000	18
491.000	15
492.000	16
493.000	13
494.000	15
495.000	14
496.000	14
497.000	14
498.000	14
499.000	16
500.000	13
501.000	14
502.000	17
503.000	14
504.000	16
505.000	17
506.000	18
507.000	19
508.000	18
509.000	17
510.000	20
511.000	17
512.000	20
513.000	23
514.000	22
515.000	19
516.000	21
517.000	23
518.000	23
519.000	27
520.000	28
521.000	28
522.000	31
523.000	35
524.000	37
525.000	37
526.000	39
527.000	38
528.000	41
529.000	40
530.000	40
531.000	37
532.000	39
533.000	35
534.000	33
535.000	30
536.000	28
537.000	27
538.000	25
539.000	24
540.000	24
541.000	20
542.000	19
543.000	21
544.000	22
545.000	20
546.000	21
547.000	21
548.000	23
549.000	22
550.000	20
551.000	24
552.000	24
553.000	25
554.000	25
555.000	27
556.000	26
557.000	30
558.000	29
559.000	35
560.000	30
561.000	35
562.000	37
563.000	33
564.000	39
565.000	42
566.000	42
567.000	45
568.000	49
569.000	50
570.000	57
571.000	62
572.000	64
573.000	72
574.000	71
575.000	72
576.000	71
577.000	69
578.000	73
579.000	71
580.000	68
581.000	62
582.000	59
583.000	51
584.000	44
585.000	39
586.000	37
587.000	34
588.000	29
589.000	29
590.000	28
591.000	27
592.000	26
593.000	25
594.000	25
595.000	25
596.000	27
597.000	26
598.000	23
599.000	28
600.000	31
601.000	27
602.000	33
603.000	31
604.000	32
605.000	31
606.000	38
607.000	42
608.000	55
609.000	67
610.000	83
611.000	112
612.000	154
613.000	201
614.000	272
615.000	355
616.000	457
617.000	596
618.000	741
619.000	890
620.000	1055
621.000	1198
622.000	1367
623.000	1474
624.000	1554
625.000	1580
626.000	1573
627.000	1535
628.000	1429
629.000	1312
630.000	1150
631.000	1003
632.000	846
633.000	691
634.000	548
635.000	432
636.000	332
637.000	256
638.000	195
639.000	151
640.000	115
641.000	95
642.000	78
643.000	72
644.000	58
645.000	55
646.000	53
647.000	51
648.000	54
649.000	50
650.000	53
651.000	50
652.000	51
653.000	51
654.000	49
655.000	51
656.000	49
657.000	56
658.000	53
659.000	57
660.000	52
661.000	58
662.000	55
663.000	56
664.000	57
665.000	58
666.000	58
667.000	61
668.000	65
669.000	65
670.000	69
671.000	66
672.000	68
673.000	69
674.000	77
675.000	83
676.000	89
677.000	96
678.000	116
679.000	125
680.000	150
681.000	172
682.000	185
683.000	211
684.000	236
685.000	259
686.000	277
687.000	293
688.000	290
689.000	309
690.000	297
691.000	295
692.000	276
693.000	262
694.000	236
695.000	216
696.000	195
697.000	169
698.000	143
699.000	127
700.000	112
701.000	90
702.000	82
703.000	73
704.000	71
705.000	67
706.000	64
707.000	62
708.000	59
709.000	62
710.000	60
711.000	63
712.000	67
713.000	73
714.000	66
715.000	74
716.000	76
717.000	77
718.000	82
719.000	82
720.000	85
721.000	95
722.000	92
723.000	94
724.000	94
725.000	96
726.000	98
727.000	96
728.000	98
729.000	88
730.000	96
731.000	91
732.000	88
733.000	88
734.000	82
735.000	81
736.000	78
737.000	76
738.000	77
739.000	73
740.000	75
741.000	72
742.000	73
743.000	67
744.000	72
745.000	70
746.000	67
747.000	69
748.000	72
749.000	74
750.000	74
751.000	77
752.000	72
753.000	72
754.000	76
755.000	73
756.000	73
757.000	79
758.000	73
759.000	74
760.000	71
761.000	79
762.000	79
763.000	81
764.000	78
765.000	78
766.000	80
767.000	79
768.000	84
769.000	80
770.000	86
771.000	85
772.000	88
773.000	87
774.000	92
775.000	90
776.000	91
777.000	93
778.000	98
779.000	103
780.000	105
781.000	105
782.000	111
783.000	120
784.000	117
785.000	125
786.000	124
787.000	124
788.000	126
789.000	135
790.000	133
791.000	138
792.000	141
793.000	141
794.000	141
795.000	142
796.000	146
797.000	146
798.000	151
799.000	148
800.000	146
801.000	148
802.000	153
803.000	157
804.000	158
805.000	161
806.000	170
807.000	179
808.000	185
809.000	196
810.000	209
811.000	221
812.000	234
813.000	249
814.000	273
815.000	294
816.000	305
817.000	314
818.000	320
819.000	326
820.000	308
821.000	319
822.000	310
823.000	300
824.000	275
825.000	259
826.000	240
827.000	225
828.000	209
829.000	192
830.000	179
831.000	169
832.000	152
833.000	142
834.000	136
835.000	141
836.000	128
837.000	127
838.000	125
839.000	118
840.000	123
841.000	123
842.000	126
843.000	127
844.000	124
845.000	123
846.000	121
847.000	119
848.000	115
849.000	120
850.000	116
851.000	122
852.000	127
853.000	127
854.000	120
855.000	120
856.000	120
857.000	119
858.000	117
859.000	124
860.000	116
861.000	114
862.000	121
863.000	120
864.000	119
865.000	123
866.000	118
867.000	123
868.000	117
869.000	115
870.000	116
871.000	116
872.000	118
873.000	117
874.000	117
875.000	113
876.000	118
877.000	114
878.000	115
879.000	118
880.000	116
881.000	116
882.000	110
883.000	114
884.000	119
885.000	117
886.000	117
887.000	124
888.000	121
889.000	128
890.000	120
891.000	123
892.000	130
893.000	129
894.000	134
895.000	134
896.000	133
897.000	142
898.000	139
899.000	143
900.000	152
901.000	153
902.000	150
903.000	158
904.000	149
905.000	160
906.000	149
907.000	154
908.000	167
909.000	169
910.000	166
911.000	166
912.000	171
913.000	168
914.000	174
915.000	175
916.000	171
917.000	175
918.000	175
919.000	174
920.000	186
921.000	182
922.000	181
923.000	181
924.000	185
925.000	186
926.000	198
927.000	192
928.000	194
929.000	199
930.000	211
931.000	205
932.000	206
933.000	216
934.000	215
935.000	225
936.000	232
937.000	245
938.000	241
939.000	254
940.000	256
941.000	270
942.000	272
943.000	265
944.000	265
945.000	257
946.000	272
947.000	266
948.000	255
949.000	247
950.000	231
951.000	224
952.000	223
953.000	208
954.000	204
955.000	197
956.000	194
957.000	182
958.000	185
959.000	181
960.000	173
961.000	178
962.000	185
963.000	178
964.000	184
965.000	176
966.000	186
967.000	188
968.000	182
969.000	183
970.000	191
971.000	201
972.000	193
973.000	191
974.000	188
975.000	190
976.000	186
977.000	173
978.000	175
979.000	170
980.000	165
981.000	164
982.000	162
983.000	157
984.000	152
985.000	152
986.000	151
987.000	151
988.000	147
989.000	144
990.000	150
991.000	140
992.000	142
993.000	138
994.000	138
995.000	141
996.000	136
997.000	140
998.000	136
999.000	138
1000.000	136
1001.000	135
1002.000	135
1003.000	133
1004.000	137
1005.000	134
1006.000	142
1007.000	138
1008.000	146
1009.000	133
1010.000	134
1011.000	134
1012.000	138
1013.000	135
1014.000	137
1015.000	137
1016.000	127
1017.000	136
1018.000	134
1019.000	139
1020.000	137
1021.000	138
1022.000	140
1023.000	143
1024.000	137
1025.000	139
1026.000	143
1027.000	139
1028.000	148
1029.000	139
1030.000	134
1031.000	147
1032.000	142
1033.000	145
1034.000	150
1035.000	143
1036.000	140
1037.000	151
1038.000	149
1039.000	147
1040.000	145
1041.000	145
1042.000	155
1043.000	146
1044.000	145
1045.000	150
1046.000	156
1047.000	153
1048.000	145
1049.000	151
1050.000	153
1051.000	164
1052.000	157
1053.000	160
1054.000	156
1055.000	162
1056.000	152
1057.000	168
1058.000	158
1059.000	164
1060.000	167
1061.000	159
1062.000	157
1063.000	152
1064.000	163
1065.000	167
1066.000	167
1067.000	172
1068.000	163
1069.000	165
1070.000	159
1071.000	165
1072.000	167
1073.000	156
1074.000	164
1075.000	163
1076.000	160
1077.000	160
1078.000	166
1079.000	162
1080.000	161
1081.000	161
1082.000	167
1083.000	159
1084.000	162
1085.000	162
1086.000	161
1087.000	166
1088.000	167
1089.000	162
1090.000	168
1091.000	175
1092.000	166
1093.000	167
1094.000	161
1095.000	174
1096.000	172
1097.000	173
1098.000	172
1099.000	174
1100.000	174
1101.000	175
1102.000	176
1103.000	180
1104.000	172
1105.000	177
1106.000	170
1107.000	176
1108.000	167
1109.000	169
1110.000	167
1111.000	167
1112.000	173
1113.000	163
1114.000	162
1115.000	162
1116.000	164
1117.000	161
1118.000	168
1119.000	163
1120.000	174
1121.000	165
1122.000	166
1123.000	164
1124.000	162
1125.000	165
1126.000	165
1127.000	164
1128.000	167
1129.000	167
1130.000	159
1131.000	169
1132.000	162
1133.000	168
1134.000	169
1135.000	173
1136.000	166
1137.000	174
1138.000	164
1139.000	164
1140.000	180
1141.000	167
1142.000	174
1143.000	176
1144.000	165
1145.000	171
1146.000	173
1147.000	174
1148.000	175
1149.000	175
1150.000	175
1151.000	175
1152.000	176
1153.000	181
1154.000	178
1155.000	178
1156.000	182
1157.000	183
1158.000	185
1159.000	187
1160.000	185
1161.000	192
1162.000	190
1163.000	182
1164.000	186
1165.000	191
1166.000	183
1167.000	188
1168.000	182
1169.000	182
1170.000	175
1171.000	179
1172.000	166
1173.000	170
1174.000	174
1175.000	165
1176.000	171
1177.000	160
1178.000	167
1179.000	167
1180.000	166
1181.000	175
1182.000	158
1183.000	152
1184.000	170
1185.000	164
1186.000	159
1187.000	161
1188.000	164
1189.000	166
1190.000	164
1191.000	162
1192.000	161
1193.000	166
1194.000	160
1195.000	160
1196.000	161
1197.000	166
1198.000	157
1199.000	172
1200.000	166
1201.000	165
1202.000	170
1203.000	159
1204.000	165
1205.000	166
1206.000	165
1207.000	163
1208.000	168
1209.000	168
1210.000	169
1211.000	171
1212.000	168
1213.000	170
1214.000	170
1215.000	172
1216.000	170
1217.000	168
1218.000	174
1219.000	162
1220.000	171
1221.000	178
1222.000	176
1223.000	169
1224.000	174
1225.000	171
1226.000	165
1227.000	169
1228.000	167
1229.000	177
1230.000	175
1231.000	174
1232.000	169
1233.000	169
1234.000	168
1235.000	172
1236.000	166
1237.000	166
1238.000	174
1239.000	165
1240.000	174
1241.000	173
1242.000	170
1243.000	169
1244.000	168
1245.000	164
1246.000	170
1247.000	170
1248.000	175
1249.000	165
1250.000	170
1251.000	170
1252.000	174
1253.000	168
1254.000	169
1255.000	166
1256.000	167
1257.000	167
1258.000	169
1259.000	170
1260.000	169
1261.000	167
1262.000	175
1263.000	168
1264.000	161
1265.000	170
1266.000	163
1267.000	176
1268.000	165
1269.000	169
1270.000	164
1271.000	159
1272.000	171
1273.000	164
1274.000	168
1275.000	164
1276.000	163
1277.000	174
1278.000	168
1279.000	159
1280.000	167
1281.000	165
1282.000	167
1283.000	168
1284.000	172
1285.000	178
1286.000	175
1287.000	172
1288.000	169
1289.000	174
1290.000	172
1291.000	179
1292.000	173
1293.000	167
1294.000	172
1295.000	176
1296.000	171
1297.000	181
1298.000	174
1299.000	174
1300.000	178
1301.000	176
1302.000	182
1303.000	180
1304.000	184
1305.000	179
1306.000	183
1307.000	176
1308.000	183
1309.000	176
1310.000	180
1311.000	175
1312.000	176
1313.000	175
1314.000	169
1315.000	174
1316.000	180
1317.000	186
1318.000	174
1319.000	179
1320.000	173
1321.000	172
1322.000	171
1323.000	181
1324.000	170
1325.000	178
1326.000	178
1327.000	172
1328.000	168
1329.000	180
1330.000	179
1331.000	178
1332.000	173
1333.000	172
1334.000	179
1335.000	172
1336.000	178
1337.000	179
1338.000	176
1339.000	174
1340.000	179
1341.000	167
1342.000	176
1343.000	176
1344.000	176
1345.000	174
1346.000	177
1347.000	177
1348.000	178
1349.000	180
1350.000	177
1351.000	184
1352.000	194
1353.000	187
1354.000	202
1355.000	208
1356.000	197
1357.000	210
1358.000	228
1359.000	243
1360.000	265
1361.000	279
1362.000	307
1363.000	341
1364.000	370
1365.000	410
1366.000	454
1367.000	503
1368.000	576
1369.000	619
1370.000	672
1371.000	726
1372.000	798
1373.000	849
1374.000	909
1375.000	969
1376.000	1005
1377.000	1004
1378.000	1049
1379.000	1083
1380.000	1069
1381.000	1082
1382.000	1047
1383.000	997
1384.000	974
1385.000	907
1386.000	867
1387.000	816
1388.000	746
1389.000	695
1390.000	625
1391.000	562
1392.000	510
1393.000	453
1394.000	395
1395.000	363
1396.000	329
1397.000	287
1398.000	263
1399.000	251
1400.000	229
1401.000	215
1402.000	201
1403.000	193
1404.000	194
1405.000	183
1406.000	181
1407.000	176
1408.000	173
1409.000	172
1410.000	172
1411.000	173
1412.000	174
1413.000	169
1414.000	165
1415.000	173
1416.000	182
1417.000	168
1418.000	172
1419.000	171
1420.000	165
1421.000	173
1422.000	173
1423.000	174
1424.000	170
1425.000	166
1426.000	173
1427.000	170
1428.000	175
1429.000	171
1430.000	162
1431.000	170
1432.000	170
1433.000	174
1434.000	166
1435.000	168
1436.000	174
1437.000	172
1438.000	170
1439.000	171
1440.000	169
1441.000	175
1442.000	172
1443.000	175
1444.000	178
1445.000	175
1446.000	169
1447.000	172
1448.000	184
1449.000	185
1450.000	181
1451.000	180
1452.000	174
1453.000	182
1454.000	182
1455.000	180
1456.000	178
1457.000	185
1458.000	178
1459.000	177
1460.000	182
1461.000	186
1462.000	181
1463.000	183
1464.000	183
1465.000	190
1466.000	178
1467.000	176
1468.000	177
1469.000	181
1470.000	177
1471.000	175
1472.000	170
1473.000	182
1474.000	182
1475.000	172
1476.000	174
1477.000	179
1478.000	179
1479.000	178
1480.000	172
1481.000	184
1482.000	180
1483.000	175
1484.000	174
1485.000	174
1486.000	178
1487.000	174
1488.000	178
1489.000	185
1490.000	179
1491.000	176
1492.000	176
1493.000	177
1494.000	175
1495.000	181
1496.000	180
1497.000	166
1498.000	175
1499.000	184
1500.000	177
1501.000	179
1502.000	178
1503.000	181
1504.000	176
1505.000	185
1506.000	176
1507.000	183
1508.000	179
1509.000	182
1510.000	190
1511.000	189
1512.000	180
1513.000	184
1514.000	187
1515.000	183
1516.000	183
1517.000	186
1518.000	186
1519.000	193
1520.000	186
1521.000	194
1522.000	197
1523.000	197
1524.000	200
1525.000	212
1526.000	207
1527.000	214
1528.000	214
1529.000	226
1530.000	244
1531.000	251
1532.000	248
1533.000	258
1534.000	270
1535.000	287
1536.000	297
1537.000	317
1538.000	321
1539.000	320
1540.000	323
1541.000	345
1542.000	347
1543.000	359
1544.000	344
1545.000	355
1546.000	349
1547.000	351
1548.000	349
1549.000	347
1550.000	339
1551.000	329
1552.000	312
1553.000	314
1554.000	294
1555.000	296
1556.000	297
1557.000	286
1558.000	289
1559.000	273
1560.000	275
1561.000	272
1562.000	273
1563.000	282
1564.000	281
1565.000	277
1566.000	284
1567.000	298
1568.000	296
1569.000	294
1570.000	306
1571.000	303
1572.000	314
1573.000	321
1574.000	322
1575.000	337
1576.000	341
1577.000	342
1578.000	353
1579.000	362
1580.000	373
1581.000	368
1582.000	398
1583.000	409
1584.000	412
1585.000	424
1586.000	437
1587.000	440
1588.000	453
1589.000	464
1590.000	483
1591.000	490
1592.000	508
1593.000	504
1594.000	522
1595.000	550
1596.000	533
1597.000	552
1598.000	560
1599.000	565
1600.000	574
1601.000	587
1602.000	584
1603.000	598
1604.000	594
1605.000	602
1606.000	601
1607.000	603
1608.000	602
1609.000	610
1610.000	600
1611.000	597
1612.000	591
1613.000	581
1614.000	580
1615.000	576
1616.000	570
1617.000	552
1618.000	554
1619.000	551
1620.000	527
1621.000	514
1622.000	503
1623.000	511
1624.000	502
1625.000	477
1626.000	468
1627.000	455
1628.000	452
1629.000	428
1630.000	428
1631.000	407
1632.000	402
1633.000	392
1634.000	382
1635.000	369
1636.000	362
1637.000	337
1638.000	350
1639.000	335
1640.000	323
1641.000	303
1642.000	307
1643.000	294
1644.000	279
1645.000	277
1646.000	276
1647.000	264
1648.000	250
1649.000	250
1650.000	244
1651.000	243
1652.000	218
1653.000	230
1654.000	221
1655.000	216
1656.000	221
1657.000	213
1658.000	212
1659.000	203
1660.000	197
1661.000	197
1662.000	186
1663.000	189
1664.000	182
1665.000	187
1666.000	176
1667.000	181
1668.000	175
1669.000	180
1670.000	179
1671.000	175
1672.000	185
1673.000	181
1674.000	181
1675.000	182
1676.000	184
1677.000	187
1678.000	191
1679.000	204
1680.000	215
1681.000	218
1682.000	242
1683.000	238
1684.000	261
1685.000	271
1686.000	302
1687.000	316
1688.000	329
1689.000	348
1690.000	371
1691.000	413
1692.000	411
1693.000	452
1694.000	465
1695.000	488
1696.000	501
1697.000	510
1698.000	527
1699.000	532
1700.000	553
1701.000	546
1702.000	543
1703.000	543
1704.000	543
1705.000	537
1706.000	508
1707.000	494
1708.000	476
1709.000	457
1710.000	436
1711.000	398
1712.000	377
1713.000	352
1714.000	335
1715.000	312
1716.000	288
1717.000	263
1718.000	246
1719.000	229
1720.000	217
1721.000	193
1722.000	186
1723.000	181
1724.000	176
1725.000	163
1726.000	160
1727.000	149
1728.000	147
1729.000	144
1730.000	145
1731.000	145
1732.000	146
1733.000	140
1734.000	131
1735.000	138
1736.000	141
1737.000	138
1738.000	132
1739.000	137
1740.000	135
1741.000	140
1742.000	143
1743.000	136
1744.000	137
1745.000	134
1746.000	138
1747.000	138
1748.000	141
1749.000	143
1750.000	150
1751.000	138
1752.000	140
1753.000	142
1754.000	148
1755.000	142
1756.000	145
1757.000	150
1758.000	141
1759.000	151
1760.000	150
1761.000	145
1762.000	157
1763.000	155
1764.000	161
1765.000	157
1766.000	166
1767.000	156
1768.000	161
1769.000	159
1770.000	165
1771.000	163
1772.000	169
1773.000	171
1774.000	176
1775.000	171
1776.000	173
1777.000	178
1778.000	178
1779.000	178
1780.000	179
1781.000	181
1782.000	182
1783.000	191
1784.000	188
1785.000	178
1786.000	192
1787.000	185
1788.000	183
1789.000	185
1790.000	191
1791.000	194
1792.000	185
1793.000	191
1794.000	198
1795.000	187
1796.000	190
1797.000	188
1798.000	189
1799.000	183
1800.000	190
1801.000	186
1802.000	185
1803.000	183
1804.000	184
1805.000	188
1806.000	188
1807.000	177
1808.000	179
1809.000	174
1810.000	167
1811.000	172
1812.000	167
1813.000	171
1814.000	164
1815.000	161
1816.000	162
1817.000	159
1818.000	151
1819.000	155
1820.000	158
1821.000	146
1822.000	147
1823.000	141
1824.000	142
1825.000	139
1826.000	135
1827.000	141
1828.000	137
1829.000	130
1830.000	131
1831.000	130
1832.000	122
1833.000	121
1834.000	120
1835.000	117
1836.000	118
1837.000	116
1838.000	114
1839.000	114
1840.000	108
1841.000	115
1842.000	108
1843.000	100
1844.000	104
1845.000	104
1846.000	100
1847.000	104
1848.000	100
1849.000	97
1850.000	97
1851.000	97
1852.000	98
1853.000	90
1854.000	93
1855.000	90
1856.000	88
1857.000	92
1858.000	90
1859.000	86
1860.000	86
1861.000	88
1862.000	86
1863.000	84
1864.000	84
1865.000	80
1866.000	82
1867.000	78
1868.000	79
1869.000	81
1870.000	77
1871.000	79
1872.000	83
1873.000	79
1874.000	77
1875.000	74
1876.000	73
1877.000	70
1878.000	74
1879.000	75
1880.000	76
1881.000	73
1882.000	72
1883.000	73
1884.000	75
1885.000	74
1886.000	74
1887.000	78
1888.000	71
1889.000	72
1890.000	75
1891.000	74
1892.000	71
1893.000	80
1894.000	81
1895.000	79
1896.000	85
1897.000	83
1898.000	88
1899.000	94
1900.000	97
1901.000	93
1902.000	100
1903.000	107
1904.000	111
1905.000	111
1906.000	117
1907.000	118
1908.000	118
1909.000	118
1910.000	115
1911.000	117
1912.000	121
1913.000	119
1914.000	122
1915.000	117
1916.000	115
1917.000	116
1918.000	103
1919.000	109
1920.000	105
1921.000	104
1922.000	95
1923.000	88
1924.000	85
1925.000	82
1926.000	81
1927.000	78
1928.000	74
1929.000	72
1930.000	71
1931.000	72
1932.000	72
1933.000	65
1934.000	70
1935.000	67
1936.000	67
1937.000	67
1938.000	68
1939.000	65
1940.000	69
1941.000	65
1942.000	66
1943.000	67
1944.000	66
1945.000	62
1946.000	69
1947.000	67
1948.000	66
1949.000	63
1950.000	64
1951.000	65
1952.000	61
1953.000	60
1954.000	60
1955.000	60
1956.000	57
1957.000	60
1958.000	56
1959.000	54
1960.000	59
1961.000	52
1962.000	59
1963.000	53
1964.000	56
1965.000	48
1966.000	53
1967.000	55
1968.000	55
1969.000	51
1970.000	50
1971.000	51
1972.000	52
1973.000	51
1974.000	51
1975.000	52
1976.000	48
1977.000	51
1978.000	49
1979.000	50
1980.000	49
1981.000	52
1982.000	45
1983.000	51
1984.000	47
1985.000	48
1986.000	51
1987.000	51
1988.000	52
1989.000	48
1990.000	45
1991.000	48
1992.000	50
1993.000	50
1994.000	52
1995.000	46
1996.000	50
1997.000	47
1998.000	50
1999.000	51
2000.000	48
2001.000	50
2002.000	50
2003.000	48
2004.000	48
2005.000	49
2006.000	48
2007.000	49
2008.000	49
2009.000	42
2010.000	49
2011.000	49
2012.000	48
2013.000	47
2014.000	49
2015.000	47
2016.000	47
2017.000	44
2018.000	41
2019.000	49
2020.000	49
2021.000	45
2022.000	45
2023.000	45
2024.000	44
2025.000	43
2026.000	45
2027.000	46
2028.000	47
2029.000	45
2030.000	43
2031.000	47
2032.000	47
2033.000	47
2034.000	48
2035.000	44
2036.000	46
2037.000	46
2038.000	44
2039.000	45
2040.000	47
2041.000	41
2042.000	47
2043.000	44
2044.000	42
2045.000	41
2046.000	43
2047.000	45
2048.000	0
