Date:	22-Sep-20		Time:	10:49 PM		Version no:	0.00		Project name:	55		Sample name:	222		Section name:	section		Position	0.000000	mm	E0	0.000000	keV	E1	1.000000	keV/channel	sample surface	2.000000	cm	Tube anode:	Mo		Tube voltage:	30	kV	Tube current:	30	mA	gain	15		std. database			resultfile	result		matrix element	11		sample thickness	1.000000		air passage	0.560000	cm	comments	not in position		peaking_time	0.300000	m-sec	trigger_threshold	40.000000	V	mca_bin_width	2.000000	no:	number_mca_channels	2048.000000	no:	gap_time	2048.000000	m-sec	trigger_peaking_time	2048.000000	m-sec	GAINDAC	400		HIGHGAIN	400		TAURC	400		RCTAU	400		RCTAUFRAC	400		livetime	12.778311	seconds	runtime	15.000098	seconds	input_count_rate	8453.386602	cps	output_count_rate	7201.286285	cps	triggers	126178	seconds	events_in_run	98622	seconds	channel	content		1.000	0
2.000	0
3.000	0
4.000	0
5.000	0
6.000	0
7.000	0
8.000	0
9.000	0
10.000	0
11.000	0
12.000	0
13.000	0
14.000	0
15.000	0
16.000	0
17.000	0
18.000	0
19.000	0
20.000	0
21.000	0
22.000	0
23.000	0
24.000	0
25.000	0
26.000	0
27.000	0
28.000	0
29.000	0
30.000	0
31.000	1
32.000	0
33.000	1
34.000	0
35.000	0
36.000	1
37.000	0
38.000	1
39.000	0
40.000	0
41.000	1
42.000	0
43.000	0
44.000	0
45.000	0
46.000	0
47.000	1
48.000	1
49.000	1
50.000	1
51.000	2
52.000	2
53.000	2
54.000	4
55.000	5
56.000	9
57.000	8
58.000	13
59.000	21
60.000	22
61.000	27
62.000	30
63.000	30
64.000	30
65.000	29
66.000	29
67.000	29
68.000	28
69.000	26
70.000	27
71.000	23
72.000	24
73.000	26
74.000	25
75.000	26
76.000	25
77.000	24
78.000	25
79.000	24
80.000	25
81.000	21
82.000	27
83.000	26
84.000	26
85.000	23
86.000	28
87.000	25
88.000	26
89.000	25
90.000	24
91.000	23
92.000	21
93.000	22
94.000	23
95.000	21
96.000	21
97.000	20
98.000	20
99.000	19
100.000	21
101.000	22
102.000	20
103.000	22
104.000	20
105.000	19
106.000	19
107.000	18
108.000	18
109.000	18
110.000	19
111.000	18
112.000	17
113.000	15
114.000	17
115.000	18
116.000	17
117.000	19
118.000	17
119.000	18
120.000	18
121.000	16
122.000	17
123.000	15
124.000	17
125.000	19
126.000	16
127.000	16
128.000	15
129.000	13
130.000	16
131.000	15
132.000	17
133.000	16
134.000	16
135.000	14
136.000	15
137.000	17
138.000	16
139.000	17
140.000	18
141.000	18
142.000	20
143.000	26
144.000	26
145.000	29
146.000	29
147.000	27
148.000	29
149.000	24
150.000	22
151.000	23
152.000	22
153.000	22
154.000	21
155.000	20
156.000	16
157.000	14
158.000	14
159.000	15
160.000	14
161.000	15
162.000	17
163.000	20
164.000	23
165.000	36
166.000	47
167.000	58
168.000	67
169.000	76
170.000	92
171.000	84
172.000	82
173.000	75
174.000	63
175.000	53
176.000	45
177.000	36
178.000	31
179.000	28
180.000	30
181.000	28
182.000	35
183.000	44
184.000	48
185.000	59
186.000	82
187.000	96
188.000	121
189.000	132
190.000	147
191.000	148
192.000	146
193.000	135
194.000	119
195.000	90
196.000	74
197.000	54
198.000	41
199.000	27
200.000	22
201.000	18
202.000	16
203.000	15
204.000	14
205.000	14
206.000	13
207.000	13
208.000	15
209.000	16
210.000	15
211.000	17
212.000	15
213.000	17
214.000	16
215.000	16
216.000	19
217.000	20
218.000	26
219.000	25
220.000	28
221.000	31
222.000	34
223.000	32
224.000	34
225.000	34
226.000	29
227.000	21
228.000	24
229.000	21
230.000	18
231.000	15
232.000	13
233.000	13
234.000	12
235.000	10
236.000	12
237.000	12
238.000	12
239.000	10
240.000	11
241.000	12
242.000	14
243.000	12
244.000	12
245.000	14
246.000	17
247.000	18
248.000	25
249.000	36
250.000	48
251.000	60
252.000	79
253.000	99
254.000	124
255.000	144
256.000	152
257.000	158
258.000	156
259.000	140
260.000	126
261.000	106
262.000	82
263.000	64
264.000	50
265.000	35
266.000	27
267.000	24
268.000	19
269.000	17
270.000	20
271.000	22
272.000	24
273.000	28
274.000	33
275.000	29
276.000	31
277.000	31
278.000	29
279.000	30
280.000	28
281.000	26
282.000	28
283.000	31
284.000	38
285.000	43
286.000	51
287.000	58
288.000	61
289.000	67
290.000	65
291.000	65
292.000	66
293.000	51
294.000	51
295.000	40
296.000	32
297.000	28
298.000	23
299.000	20
300.000	16
301.000	16
302.000	19
303.000	15
304.000	16
305.000	19
306.000	21
307.000	21
308.000	22
309.000	21
310.000	25
311.000	31
312.000	34
313.000	41
314.000	56
315.000	66
316.000	91
317.000	132
318.000	172
319.000	226
320.000	287
321.000	360
322.000	395
323.000	441
324.000	463
325.000	477
326.000	449
327.000	415
328.000	346
329.000	289
330.000	223
331.000	173
332.000	125
333.000	88
334.000	66
335.000	49
336.000	36
337.000	34
338.000	31
339.000	29
340.000	33
341.000	41
342.000	51
343.000	62
344.000	79
345.000	100
346.000	154
347.000	216
348.000	316
349.000	496
350.000	759
351.000	1173
352.000	1731
353.000	2532
354.000	3623
355.000	4888
356.000	6385
357.000	8007
358.000	9584
359.000	10932
360.000	11942
361.000	12365
362.000	12302
363.000	11634
364.000	10636
365.000	9143
366.000	7557
367.000	5908
368.000	4427
369.000	3175
370.000	2189
371.000	1440
372.000	929
373.000	566
374.000	345
375.000	214
376.000	144
377.000	111
378.000	101
379.000	116
380.000	125
381.000	174
382.000	236
383.000	312
384.000	439
385.000	571
386.000	757
387.000	981
388.000	1180
389.000	1409
390.000	1603
391.000	1776
392.000	1855
393.000	1876
394.000	1817
395.000	1695
396.000	1519
397.000	1285
398.000	1063
399.000	830
400.000	617
401.000	455
402.000	314
403.000	212
404.000	142
405.000	88
406.000	53
407.000	36
408.000	23
409.000	17
410.000	14
411.000	13
412.000	9
413.000	8
414.000	10
415.000	7
416.000	10
417.000	8
418.000	8
419.000	8
420.000	8
421.000	8
422.000	9
423.000	10
424.000	11
425.000	13
426.000	15
427.000	18
428.000	23
429.000	31
430.000	42
431.000	59
432.000	71
433.000	101
434.000	135
435.000	167
436.000	201
437.000	249
438.000	283
439.000	314
440.000	335
441.000	339
442.000	341
443.000	308
444.000	291
445.000	258
446.000	219
447.000	177
448.000	142
449.000	113
450.000	98
451.000	80
452.000	73
453.000	57
454.000	50
455.000	51
456.000	48
457.000	45
458.000	41
459.000	37
460.000	31
461.000	31
462.000	30
463.000	25
464.000	24
465.000	21
466.000	23
467.000	24
468.000	26
469.000	25
470.000	27
471.000	32
472.000	31
473.000	38
474.000	41
475.000	44
476.000	51
477.000	58
478.000	66
479.000	70
480.000	70
481.000	73
482.000	84
483.000	77
484.000	78
485.000	65
486.000	63
487.000	62
488.000	55
489.000	45
490.000	42
491.000	36
492.000	30
493.000	25
494.000	25
495.000	22
496.000	20
497.000	20
498.000	22
499.000	20
500.000	23
501.000	22
502.000	24
503.000	20
504.000	23
505.000	22
506.000	22
507.000	25
508.000	26
509.000	25
510.000	24
511.000	27
512.000	30
513.000	29
514.000	28
515.000	31
516.000	33
517.000	35
518.000	35
519.000	38
520.000	40
521.000	38
522.000	44
523.000	42
524.000	48
525.000	49
526.000	54
527.000	54
528.000	53
529.000	56
530.000	50
531.000	55
532.000	52
533.000	52
534.000	44
535.000	43
536.000	40
537.000	38
538.000	32
539.000	36
540.000	28
541.000	29
542.000	29
543.000	29
544.000	28
545.000	28
546.000	25
547.000	26
548.000	22
549.000	29
550.000	27
551.000	29
552.000	29
553.000	28
554.000	31
555.000	30
556.000	31
557.000	33
558.000	30
559.000	35
560.000	32
561.000	41
562.000	44
563.000	50
564.000	50
565.000	59
566.000	73
567.000	86
568.000	102
569.000	119
570.000	136
571.000	170
572.000	189
573.000	204
574.000	222
575.000	221
576.000	240
577.000	225
578.000	217
579.000	217
580.000	197
581.000	178
582.000	145
583.000	128
584.000	109
585.000	94
586.000	72
587.000	70
588.000	56
589.000	51
590.000	49
591.000	43
592.000	38
593.000	42
594.000	38
595.000	43
596.000	45
597.000	46
598.000	41
599.000	44
600.000	44
601.000	51
602.000	53
603.000	58
604.000	68
605.000	72
606.000	95
607.000	121
608.000	159
609.000	221
610.000	326
611.000	452
612.000	643
613.000	879
614.000	1269
615.000	1693
616.000	2247
617.000	2888
618.000	3635
619.000	4445
620.000	5271
621.000	6069
622.000	6749
623.000	7383
624.000	7782
625.000	7956
626.000	7937
627.000	7620
628.000	7134
629.000	6494
630.000	5760
631.000	4892
632.000	4116
633.000	3312
634.000	2627
635.000	2013
636.000	1517
637.000	1107
638.000	785
639.000	554
640.000	381
641.000	273
642.000	198
643.000	154
644.000	113
645.000	95
646.000	83
647.000	72
648.000	73
649.000	70
650.000	69
651.000	67
652.000	70
653.000	61
654.000	63
655.000	65
656.000	66
657.000	65
658.000	66
659.000	69
660.000	66
661.000	72
662.000	74
663.000	72
664.000	75
665.000	82
666.000	84
667.000	87
668.000	90
669.000	95
670.000	104
671.000	109
672.000	119
673.000	134
674.000	157
675.000	191
676.000	223
677.000	270
678.000	331
679.000	420
680.000	490
681.000	608
682.000	710
683.000	841
684.000	952
685.000	1069
686.000	1159
687.000	1237
688.000	1281
689.000	1293
690.000	1300
691.000	1256
692.000	1198
693.000	1087
694.000	969
695.000	836
696.000	722
697.000	606
698.000	490
699.000	409
700.000	322
701.000	246
702.000	201
703.000	154
704.000	127
705.000	110
706.000	94
707.000	75
708.000	74
709.000	70
710.000	67
711.000	65
712.000	67
713.000	63
714.000	61
715.000	69
716.000	68
717.000	71
718.000	72
719.000	78
720.000	78
721.000	76
722.000	79
723.000	89
724.000	94
725.000	90
726.000	95
727.000	97
728.000	98
729.000	102
730.000	103
731.000	102
732.000	96
733.000	92
734.000	98
735.000	89
736.000	90
737.000	84
738.000	82
739.000	83
740.000	78
741.000	80
742.000	73
743.000	76
744.000	73
745.000	75
746.000	73
747.000	70
748.000	74
749.000	73
750.000	75
751.000	72
752.000	76
753.000	74
754.000	71
755.000	77
756.000	75
757.000	75
758.000	72
759.000	73
760.000	76
761.000	76
762.000	76
763.000	78
764.000	81
765.000	76
766.000	78
767.000	78
768.000	82
769.000	81
770.000	85
771.000	92
772.000	89
773.000	87
774.000	96
775.000	88
776.000	102
777.000	107
778.000	109
779.000	107
780.000	118
781.000	125
782.000	128
783.000	129
784.000	139
785.000	140
786.000	144
787.000	142
788.000	151
789.000	153
790.000	152
791.000	153
792.000	158
793.000	157
794.000	152
795.000	159
796.000	157
797.000	160
798.000	157
799.000	155
800.000	158
801.000	148
802.000	157
803.000	152
804.000	161
805.000	163
806.000	170
807.000	175
808.000	184
809.000	189
810.000	202
811.000	214
812.000	224
813.000	244
814.000	264
815.000	271
816.000	288
817.000	295
818.000	295
819.000	307
820.000	309
821.000	300
822.000	289
823.000	283
824.000	270
825.000	247
826.000	230
827.000	211
828.000	199
829.000	176
830.000	170
831.000	158
832.000	152
833.000	149
834.000	141
835.000	144
836.000	142
837.000	144
838.000	142
839.000	139
840.000	139
841.000	140
842.000	141
843.000	148
844.000	141
845.000	144
846.000	144
847.000	143
848.000	140
849.000	137
850.000	133
851.000	124
852.000	129
853.000	126
854.000	126
855.000	128
856.000	124
857.000	119
858.000	122
859.000	124
860.000	125
861.000	114
862.000	124
863.000	117
864.000	117
865.000	120
866.000	118
867.000	125
868.000	131
869.000	129
870.000	122
871.000	125
872.000	126
873.000	129
874.000	123
875.000	123
876.000	130
877.000	121
878.000	125
879.000	124
880.000	120
881.000	127
882.000	117
883.000	131
884.000	129
885.000	131
886.000	127
887.000	125
888.000	131
889.000	133
890.000	130
891.000	137
892.000	133
893.000	135
894.000	137
895.000	143
896.000	141
897.000	144
898.000	152
899.000	156
900.000	161
901.000	160
902.000	162
903.000	162
904.000	157
905.000	175
906.000	171
907.000	169
908.000	169
909.000	175
910.000	181
911.000	179
912.000	170
913.000	178
914.000	179
915.000	180
916.000	183
917.000	182
918.000	188
919.000	187
920.000	190
921.000	189
922.000	188
923.000	196
924.000	198
925.000	198
926.000	202
927.000	197
928.000	200
929.000	204
930.000	208
931.000	214
932.000	212
933.000	216
934.000	223
935.000	231
936.000	238
937.000	239
938.000	253
939.000	250
940.000	261
941.000	270
942.000	271
943.000	267
944.000	274
945.000	272
946.000	267
947.000	254
948.000	251
949.000	248
950.000	237
951.000	234
952.000	223
953.000	219
954.000	213
955.000	198
956.000	196
957.000	196
958.000	191
959.000	185
960.000	182
961.000	178
962.000	184
963.000	179
964.000	176
965.000	184
966.000	186
967.000	191
968.000	193
969.000	199
970.000	194
971.000	190
972.000	190
973.000	194
974.000	192
975.000	190
976.000	181
977.000	178
978.000	178
979.000	184
980.000	174
981.000	169
982.000	172
983.000	154
984.000	158
985.000	165
986.000	158
987.000	150
988.000	150
989.000	155
990.000	148
991.000	156
992.000	148
993.000	145
994.000	145
995.000	145
996.000	145
997.000	141
998.000	143
999.000	138
1000.000	140
1001.000	142
1002.000	148
1003.000	142
1004.000	144
1005.000	142
1006.000	140
1007.000	142
1008.000	138
1009.000	141
1010.000	145
1011.000	138
1012.000	149
1013.000	141
1014.000	145
1015.000	138
1016.000	137
1017.000	144
1018.000	140
1019.000	147
1020.000	151
1021.000	149
1022.000	143
1023.000	145
1024.000	153
1025.000	146
1026.000	150
1027.000	154
1028.000	157
1029.000	160
1030.000	153
1031.000	155
1032.000	159
1033.000	147
1034.000	159
1035.000	156
1036.000	158
1037.000	152
1038.000	153
1039.000	161
1040.000	151
1041.000	149
1042.000	157
1043.000	160
1044.000	158
1045.000	158
1046.000	159
1047.000	159
1048.000	152
1049.000	160
1050.000	160
1051.000	155
1052.000	163
1053.000	165
1054.000	170
1055.000	164
1056.000	159
1057.000	164
1058.000	162
1059.000	167
1060.000	161
1061.000	159
1062.000	168
1063.000	173
1064.000	170
1065.000	166
1066.000	166
1067.000	167
1068.000	167
1069.000	172
1070.000	167
1071.000	167
1072.000	159
1073.000	166
1074.000	167
1075.000	170
1076.000	158
1077.000	168
1078.000	165
1079.000	167
1080.000	163
1081.000	166
1082.000	169
1083.000	172
1084.000	165
1085.000	174
1086.000	172
1087.000	170
1088.000	173
1089.000	170
1090.000	168
1091.000	168
1092.000	171
1093.000	174
1094.000	169
1095.000	175
1096.000	170
1097.000	182
1098.000	176
1099.000	178
1100.000	177
1101.000	179
1102.000	182
1103.000	178
1104.000	182
1105.000	178
1106.000	181
1107.000	176
1108.000	177
1109.000	179
1110.000	173
1111.000	173
1112.000	171
1113.000	164
1114.000	170
1115.000	169
1116.000	169
1117.000	170
1118.000	176
1119.000	168
1120.000	168
1121.000	166
1122.000	164
1123.000	165
1124.000	167
1125.000	165
1126.000	169
1127.000	171
1128.000	159
1129.000	160
1130.000	167
1131.000	160
1132.000	176
1133.000	174
1134.000	168
1135.000	170
1136.000	168
1137.000	178
1138.000	166
1139.000	169
1140.000	166
1141.000	172
1142.000	171
1143.000	172
1144.000	172
1145.000	182
1146.000	173
1147.000	171
1148.000	180
1149.000	173
1150.000	171
1151.000	182
1152.000	187
1153.000	180
1154.000	185
1155.000	185
1156.000	191
1157.000	183
1158.000	191
1159.000	191
1160.000	200
1161.000	205
1162.000	198
1163.000	194
1164.000	201
1165.000	200
1166.000	195
1167.000	187
1168.000	190
1169.000	196
1170.000	188
1171.000	190
1172.000	174
1173.000	176
1174.000	176
1175.000	181
1176.000	169
1177.000	173
1178.000	171
1179.000	176
1180.000	182
1181.000	169
1182.000	169
1183.000	167
1184.000	164
1185.000	166
1186.000	168
1187.000	166
1188.000	170
1189.000	166
1190.000	168
1191.000	164
1192.000	164
1193.000	176
1194.000	160
1195.000	168
1196.000	172
1197.000	181
1198.000	175
1199.000	166
1200.000	164
1201.000	174
1202.000	176
1203.000	174
1204.000	173
1205.000	172
1206.000	178
1207.000	177
1208.000	163
1209.000	169
1210.000	165
1211.000	173
1212.000	166
1213.000	173
1214.000	177
1215.000	176
1216.000	171
1217.000	179
1218.000	172
1219.000	176
1220.000	173
1221.000	179
1222.000	172
1223.000	172
1224.000	175
1225.000	179
1226.000	173
1227.000	177
1228.000	170
1229.000	181
1230.000	177
1231.000	182
1232.000	176
1233.000	182
1234.000	181
1235.000	181
1236.000	172
1237.000	175
1238.000	178
1239.000	185
1240.000	176
1241.000	183
1242.000	177
1243.000	179
1244.000	179
1245.000	168
1246.000	184
1247.000	182
1248.000	182
1249.000	174
1250.000	178
1251.000	177
1252.000	181
1253.000	177
1254.000	180
1255.000	176
1256.000	179
1257.000	179
1258.000	174
1259.000	182
1260.000	185
1261.000	175
1262.000	174
1263.000	169
1264.000	176
1265.000	177
1266.000	181
1267.000	184
1268.000	176
1269.000	175
1270.000	170
1271.000	176
1272.000	171
1273.000	173
1274.000	181
1275.000	177
1276.000	177
1277.000	176
1278.000	180
1279.000	181
1280.000	176
1281.000	183
1282.000	174
1283.000	177
1284.000	180
1285.000	180
1286.000	187
1287.000	176
1288.000	189
1289.000	192
1290.000	190
1291.000	196
1292.000	193
1293.000	187
1294.000	198
1295.000	200
1296.000	199
1297.000	209
1298.000	213
1299.000	213
1300.000	204
1301.000	209
1302.000	213
1303.000	223
1304.000	211
1305.000	217
1306.000	217
1307.000	217
1308.000	206
1309.000	199
1310.000	205
1311.000	199
1312.000	200
1313.000	196
1314.000	201
1315.000	195
1316.000	205
1317.000	196
1318.000	189
1319.000	190
1320.000	188
1321.000	195
1322.000	188
1323.000	190
1324.000	192
1325.000	186
1326.000	184
1327.000	182
1328.000	180
1329.000	185
1330.000	189
1331.000	181
1332.000	176
1333.000	184
1334.000	179
1335.000	181
1336.000	181
1337.000	186
1338.000	186
1339.000	182
1340.000	181
1341.000	186
1342.000	192
1343.000	178
1344.000	181
1345.000	183
1346.000	180
1347.000	189
1348.000	180
1349.000	182
1350.000	187
1351.000	195
1352.000	186
1353.000	185
1354.000	194
1355.000	196
1356.000	205
1357.000	213
1358.000	211
1359.000	220
1360.000	225
1361.000	249
1362.000	258
1363.000	279
1364.000	308
1365.000	332
1366.000	351
1367.000	385
1368.000	423
1369.000	460
1370.000	499
1371.000	523
1372.000	565
1373.000	602
1374.000	638
1375.000	678
1376.000	692
1377.000	722
1378.000	728
1379.000	729
1380.000	740
1381.000	726
1382.000	709
1383.000	706
1384.000	667
1385.000	641
1386.000	611
1387.000	566
1388.000	530
1389.000	500
1390.000	472
1391.000	421
1392.000	401
1393.000	357
1394.000	322
1395.000	300
1396.000	274
1397.000	256
1398.000	242
1399.000	218
1400.000	216
1401.000	208
1402.000	200
1403.000	195
1404.000	189
1405.000	194
1406.000	196
1407.000	191
1408.000	178
1409.000	179
1410.000	184
1411.000	173
1412.000	178
1413.000	178
1414.000	183
1415.000	176
1416.000	183
1417.000	184
1418.000	187
1419.000	173
1420.000	184
1421.000	178
1422.000	173
1423.000	181
1424.000	181
1425.000	180
1426.000	175
1427.000	177
1428.000	174
1429.000	183
1430.000	178
1431.000	177
1432.000	192
1433.000	182
1434.000	187
1435.000	187
1436.000	181
1437.000	184
1438.000	177
1439.000	186
1440.000	191
1441.000	196
1442.000	183
1443.000	186
1444.000	190
1445.000	191
1446.000	194
1447.000	190
1448.000	192
1449.000	192
1450.000	196
1451.000	204
1452.000	195
1453.000	190
1454.000	198
1455.000	199
1456.000	195
1457.000	206
1458.000	206
1459.000	195
1460.000	204
1461.000	198
1462.000	193
1463.000	201
1464.000	208
1465.000	195
1466.000	193
1467.000	200
1468.000	188
1469.000	188
1470.000	200
1471.000	191
1472.000	183
1473.000	196
1474.000	191
1475.000	191
1476.000	188
1477.000	189
1478.000	189
1479.000	186
1480.000	191
1481.000	189
1482.000	192
1483.000	179
1484.000	185
1485.000	186
1486.000	194
1487.000	184
1488.000	194
1489.000	189
1490.000	189
1491.000	186
1492.000	195
1493.000	197
1494.000	188
1495.000	191
1496.000	180
1497.000	188
1498.000	195
1499.000	190
1500.000	197
1501.000	186
1502.000	190
1503.000	184
1504.000	187
1505.000	194
1506.000	187
1507.000	196
1508.000	195
1509.000	196
1510.000	197
1511.000	202
1512.000	206
1513.000	189
1514.000	198
1515.000	196
1516.000	204
1517.000	205
1518.000	203
1519.000	207
1520.000	206
1521.000	211
1522.000	221
1523.000	231
1524.000	223
1525.000	237
1526.000	240
1527.000	245
1528.000	242
1529.000	265
1530.000	261
1531.000	261
1532.000	289
1533.000	291
1534.000	298
1535.000	307
1536.000	313
1537.000	319
1538.000	323
1539.000	340
1540.000	339
1541.000	333
1542.000	335
1543.000	341
1544.000	335
1545.000	338
1546.000	338
1547.000	330
1548.000	325
1549.000	320
1550.000	316
1551.000	310
1552.000	302
1553.000	296
1554.000	295
1555.000	282
1556.000	288
1557.000	279
1558.000	284
1559.000	288
1560.000	275
1561.000	282
1562.000	280
1563.000	284
1564.000	296
1565.000	292
1566.000	302
1567.000	301
1568.000	300
1569.000	302
1570.000	313
1571.000	331
1572.000	341
1573.000	342
1574.000	359
1575.000	359
1576.000	359
1577.000	362
1578.000	368
1579.000	400
1580.000	394
1581.000	403
1582.000	423
1583.000	430
1584.000	446
1585.000	461
1586.000	454
1587.000	473
1588.000	494
1589.000	517
1590.000	543
1591.000	535
1592.000	535
1593.000	563
1594.000	562
1595.000	581
1596.000	594
1597.000	607
1598.000	619
1599.000	625
1600.000	640
1601.000	633
1602.000	647
1603.000	654
1604.000	655
1605.000	676
1606.000	663
1607.000	667
1608.000	664
1609.000	687
1610.000	675
1611.000	653
1612.000	665
1613.000	647
1614.000	654
1615.000	642
1616.000	636
1617.000	632
1618.000	609
1619.000	611
1620.000	583
1621.000	577
1622.000	602
1623.000	553
1624.000	558
1625.000	542
1626.000	534
1627.000	514
1628.000	511
1629.000	489
1630.000	474
1631.000	471
1632.000	449
1633.000	440
1634.000	420
1635.000	409
1636.000	400
1637.000	378
1638.000	375
1639.000	368
1640.000	360
1641.000	349
1642.000	329
1643.000	330
1644.000	312
1645.000	322
1646.000	300
1647.000	294
1648.000	284
1649.000	279
1650.000	276
1651.000	251
1652.000	261
1653.000	245
1654.000	250
1655.000	239
1656.000	241
1657.000	231
1658.000	225
1659.000	213
1660.000	222
1661.000	211
1662.000	217
1663.000	210
1664.000	201
1665.000	212
1666.000	197
1667.000	209
1668.000	197
1669.000	197
1670.000	200
1671.000	194
1672.000	191
1673.000	197
1674.000	199
1675.000	197
1676.000	200
1677.000	210
1678.000	218
1679.000	224
1680.000	227
1681.000	232
1682.000	247
1683.000	267
1684.000	280
1685.000	288
1686.000	306
1687.000	322
1688.000	348
1689.000	370
1690.000	394
1691.000	404
1692.000	436
1693.000	447
1694.000	471
1695.000	484
1696.000	523
1697.000	535
1698.000	534
1699.000	557
1700.000	557
1701.000	562
1702.000	552
1703.000	555
1704.000	552
1705.000	537
1706.000	524
1707.000	503
1708.000	483
1709.000	472
1710.000	446
1711.000	421
1712.000	411
1713.000	367
1714.000	340
1715.000	334
1716.000	301
1717.000	280
1718.000	266
1719.000	239
1720.000	227
1721.000	215
1722.000	200
1723.000	196
1724.000	194
1725.000	174
1726.000	172
1727.000	174
1728.000	169
1729.000	170
1730.000	154
1731.000	156
1732.000	152
1733.000	154
1734.000	150
1735.000	158
1736.000	155
1737.000	154
1738.000	146
1739.000	156
1740.000	154
1741.000	155
1742.000	157
1743.000	153
1744.000	150
1745.000	152
1746.000	156
1747.000	148
1748.000	163
1749.000	155
1750.000	163
1751.000	152
1752.000	159
1753.000	155
1754.000	158
1755.000	157
1756.000	157
1757.000	161
1758.000	161
1759.000	164
1760.000	163
1761.000	161
1762.000	170
1763.000	167
1764.000	169
1765.000	176
1766.000	176
1767.000	176
1768.000	183
1769.000	180
1770.000	177
1771.000	183
1772.000	181
1773.000	190
1774.000	183
1775.000	187
1776.000	194
1777.000	192
1778.000	197
1779.000	198
1780.000	197
1781.000	193
1782.000	204
1783.000	204
1784.000	212
1785.000	209
1786.000	201
1787.000	203
1788.000	216
1789.000	214
1790.000	210
1791.000	210
1792.000	221
1793.000	214
1794.000	213
1795.000	214
1796.000	216
1797.000	210
1798.000	213
1799.000	208
1800.000	214
1801.000	203
1802.000	203
1803.000	199
1804.000	201
1805.000	198
1806.000	200
1807.000	195
1808.000	187
1809.000	191
1810.000	201
1811.000	198
1812.000	190
1813.000	185
1814.000	185
1815.000	177
1816.000	175
1817.000	173
1818.000	167
1819.000	170
1820.000	162
1821.000	163
1822.000	164
1823.000	162
1824.000	156
1825.000	152
1826.000	145
1827.000	151
1828.000	150
1829.000	145
1830.000	138
1831.000	137
1832.000	139
1833.000	137
1834.000	134
1835.000	126
1836.000	128
1837.000	126
1838.000	119
1839.000	127
1840.000	119
1841.000	127
1842.000	118
1843.000	118
1844.000	114
1845.000	108
1846.000	116
1847.000	108
1848.000	105
1849.000	104
1850.000	109
1851.000	100
1852.000	108
1853.000	100
1854.000	107
1855.000	103
1856.000	100
1857.000	95
1858.000	96
1859.000	98
1860.000	96
1861.000	94
1862.000	92
1863.000	94
1864.000	90
1865.000	93
1866.000	92
1867.000	86
1868.000	85
1869.000	90
1870.000	85
1871.000	85
1872.000	89
1873.000	81
1874.000	81
1875.000	81
1876.000	83
1877.000	85
1878.000	80
1879.000	82
1880.000	79
1881.000	80
1882.000	79
1883.000	78
1884.000	81
1885.000	78
1886.000	82
1887.000	81
1888.000	83
1889.000	78
1890.000	83
1891.000	84
1892.000	90
1893.000	84
1894.000	82
1895.000	89
1896.000	90
1897.000	92
1898.000	94
1899.000	99
1900.000	98
1901.000	104
1902.000	108
1903.000	114
1904.000	112
1905.000	118
1906.000	122
1907.000	123
1908.000	134
1909.000	127
1910.000	131
1911.000	124
1912.000	121
1913.000	125
1914.000	126
1915.000	125
1916.000	120
1917.000	117
1918.000	116
1919.000	108
1920.000	110
1921.000	107
1922.000	101
1923.000	96
1924.000	93
1925.000	93
1926.000	86
1927.000	78
1928.000	88
1929.000	82
1930.000	78
1931.000	75
1932.000	75
1933.000	74
1934.000	75
1935.000	74
1936.000	71
1937.000	74
1938.000	70
1939.000	70
1940.000	69
1941.000	76
1942.000	71
1943.000	68
1944.000	69
1945.000	77
1946.000	71
1947.000	69
1948.000	71
1949.000	70
1950.000	67
1951.000	70
1952.000	69
1953.000	64
1954.000	63
1955.000	65
1956.000	67
1957.000	66
1958.000	65
1959.000	59
1960.000	61
1961.000	61
1962.000	63
1963.000	62
1964.000	62
1965.000	58
1966.000	61
1967.000	56
1968.000	58
1969.000	59
1970.000	53
1971.000	55
1972.000	55
1973.000	53
1974.000	56
1975.000	59
1976.000	55
1977.000	53
1978.000	57
1979.000	54
1980.000	53
1981.000	58
1982.000	52
1983.000	56
1984.000	54
1985.000	59
1986.000	57
1987.000	57
1988.000	54
1989.000	54
1990.000	52
1991.000	54
1992.000	51
1993.000	56
1994.000	54
1995.000	53
1996.000	54
1997.000	55
1998.000	53
1999.000	54
2000.000	55
2001.000	51
2002.000	55
2003.000	57
2004.000	54
2005.000	49
2006.000	54
2007.000	52
2008.000	53
2009.000	55
2010.000	57
2011.000	54
2012.000	57
2013.000	52
2014.000	55
2015.000	52
2016.000	50
2017.000	53
2018.000	52
2019.000	56
2020.000	54
2021.000	54
2022.000	51
2023.000	56
2024.000	50
2025.000	52
2026.000	53
2027.000	54
2028.000	50
2029.000	51
2030.000	50
2031.000	52
2032.000	52
2033.000	48
2034.000	49
2035.000	51
2036.000	53
2037.000	52
2038.000	51
2039.000	49
2040.000	53
2041.000	49
2042.000	47
2043.000	50
2044.000	56
2045.000	54
2046.000	49
2047.000	53
2048.000	0
