Date:	23-Sep-20		Time:	11:32 PM		Version no:	0.00		Project name:	55		Sample name:	222		Section name:	section		Position	0.000000	mm	E0	0.000000	keV	E1	1.000000	keV/channel	sample surface	2.000000	cm	Tube anode:	Mo		Tube voltage:	30	kV	Tube current:	30	mA	gain	15		std. database			resultfile	result		matrix element	11		sample thickness	1.000000		air passage	0.560000	cm	comments	not in position		peaking_time	0.300000	m-sec	trigger_threshold	40.000000	V	mca_bin_width	2.000000	no:	number_mca_channels	2048.000000	no:	gap_time	2048.000000	m-sec	trigger_peaking_time	2048.000000	m-sec	GAINDAC	400		HIGHGAIN	400		TAURC	400		RCTAU	400		RCTAUFRAC	400		livetime	13.334824	seconds	runtime	15.000351	seconds	input_count_rate	47769.585089	cps	output_count_rate	42465.604889	cps	triggers	704307	seconds	events_in_run	618783	seconds	channel	content		1.000	0
2.000	0
3.000	0
4.000	0
5.000	0
6.000	0
7.000	0
8.000	0
9.000	0
10.000	0
11.000	0
12.000	0
13.000	0
14.000	0
15.000	0
16.000	0
17.000	0
18.000	0
19.000	0
20.000	0
21.000	0
22.000	0
23.000	0
24.000	0
25.000	0
26.000	0
27.000	0
28.000	0
29.000	0
30.000	0
31.000	0
32.000	0
33.000	1
34.000	0
35.000	0
36.000	0
37.000	0
38.000	0
39.000	0
40.000	0
41.000	0
42.000	0
43.000	0
44.000	0
45.000	0
46.000	0
47.000	0
48.000	0
49.000	0
50.000	1
51.000	1
52.000	2
53.000	3
54.000	4
55.000	4
56.000	6
57.000	7
58.000	11
59.000	15
60.000	22
61.000	25
62.000	28
63.000	27
64.000	27
65.000	29
66.000	28
67.000	24
68.000	23
69.000	24
70.000	24
71.000	25
72.000	23
73.000	25
74.000	25
75.000	19
76.000	25
77.000	21
78.000	19
79.000	22
80.000	22
81.000	20
82.000	24
83.000	20
84.000	23
85.000	21
86.000	24
87.000	24
88.000	25
89.000	21
90.000	21
91.000	18
92.000	21
93.000	23
94.000	20
95.000	21
96.000	19
97.000	18
98.000	19
99.000	19
100.000	19
101.000	19
102.000	18
103.000	18
104.000	16
105.000	18
106.000	20
107.000	18
108.000	18
109.000	17
110.000	14
111.000	15
112.000	16
113.000	18
114.000	17
115.000	17
116.000	18
117.000	19
118.000	17
119.000	17
120.000	15
121.000	18
122.000	17
123.000	14
124.000	17
125.000	15
126.000	16
127.000	15
128.000	12
129.000	16
130.000	14
131.000	13
132.000	11
133.000	15
134.000	15
135.000	15
136.000	12
137.000	14
138.000	15
139.000	14
140.000	14
141.000	17
142.000	19
143.000	19
144.000	21
145.000	20
146.000	23
147.000	24
148.000	20
149.000	20
150.000	18
151.000	16
152.000	18
153.000	17
154.000	16
155.000	15
156.000	15
157.000	14
158.000	13
159.000	12
160.000	12
161.000	14
162.000	13
163.000	17
164.000	19
165.000	20
166.000	24
167.000	32
168.000	32
169.000	39
170.000	42
171.000	42
172.000	42
173.000	36
174.000	33
175.000	28
176.000	24
177.000	23
178.000	22
179.000	25
180.000	26
181.000	28
182.000	34
183.000	44
184.000	56
185.000	71
186.000	97
187.000	125
188.000	153
189.000	182
190.000	195
191.000	205
192.000	189
193.000	172
194.000	150
195.000	114
196.000	89
197.000	69
198.000	45
199.000	30
200.000	22
201.000	17
202.000	16
203.000	13
204.000	13
205.000	13
206.000	14
207.000	14
208.000	12
209.000	12
210.000	15
211.000	15
212.000	14
213.000	17
214.000	19
215.000	19
216.000	21
217.000	24
218.000	23
219.000	30
220.000	33
221.000	36
222.000	40
223.000	38
224.000	37
225.000	35
226.000	31
227.000	27
228.000	24
229.000	20
230.000	17
231.000	15
232.000	14
233.000	14
234.000	10
235.000	9
236.000	12
237.000	12
238.000	10
239.000	12
240.000	12
241.000	12
242.000	10
243.000	11
244.000	13
245.000	15
246.000	15
247.000	19
248.000	18
249.000	27
250.000	33
251.000	49
252.000	59
253.000	76
254.000	95
255.000	105
256.000	118
257.000	115
258.000	112
259.000	103
260.000	95
261.000	78
262.000	64
263.000	50
264.000	40
265.000	30
266.000	25
267.000	19
268.000	19
269.000	19
270.000	17
271.000	18
272.000	21
273.000	24
274.000	26
275.000	25
276.000	25
277.000	26
278.000	23
279.000	27
280.000	23
281.000	28
282.000	33
283.000	34
284.000	41
285.000	53
286.000	57
287.000	70
288.000	79
289.000	84
290.000	83
291.000	80
292.000	77
293.000	70
294.000	52
295.000	46
296.000	40
297.000	32
298.000	26
299.000	23
300.000	19
301.000	21
302.000	18
303.000	20
304.000	18
305.000	18
306.000	22
307.000	25
308.000	23
309.000	27
310.000	29
311.000	30
312.000	36
313.000	38
314.000	44
315.000	56
316.000	66
317.000	82
318.000	95
319.000	124
320.000	154
321.000	185
322.000	216
323.000	246
324.000	241
325.000	243
326.000	231
327.000	218
328.000	190
329.000	159
330.000	127
331.000	95
332.000	75
333.000	56
334.000	42
335.000	33
336.000	31
337.000	32
338.000	29
339.000	33
340.000	40
341.000	45
342.000	53
343.000	68
344.000	83
345.000	115
346.000	173
347.000	253
348.000	388
349.000	618
350.000	963
351.000	1496
352.000	2257
353.000	3314
354.000	4728
355.000	6463
356.000	8391
357.000	10513
358.000	12575
359.000	14438
360.000	15827
361.000	16361
362.000	16284
363.000	15383
364.000	13926
365.000	12059
366.000	9907
367.000	7812
368.000	5867
369.000	4207
370.000	2867
371.000	1916
372.000	1199
373.000	734
374.000	448
375.000	288
376.000	189
377.000	146
378.000	128
379.000	150
380.000	172
381.000	234
382.000	303
383.000	411
384.000	570
385.000	753
386.000	997
387.000	1279
388.000	1588
389.000	1867
390.000	2164
391.000	2356
392.000	2479
393.000	2523
394.000	2440
395.000	2279
396.000	2025
397.000	1730
398.000	1409
399.000	1104
400.000	825
401.000	589
402.000	417
403.000	274
404.000	180
405.000	110
406.000	68
407.000	42
408.000	27
409.000	19
410.000	14
411.000	11
412.000	9
413.000	10
414.000	7
415.000	6
416.000	8
417.000	7
418.000	6
419.000	10
420.000	8
421.000	7
422.000	7
423.000	9
424.000	9
425.000	8
426.000	11
427.000	13
428.000	16
429.000	19
430.000	24
431.000	33
432.000	46
433.000	52
434.000	71
435.000	92
436.000	112
437.000	126
438.000	148
439.000	161
440.000	163
441.000	183
442.000	169
443.000	159
444.000	152
445.000	132
446.000	117
447.000	93
448.000	75
449.000	65
450.000	55
451.000	45
452.000	41
453.000	36
454.000	34
455.000	33
456.000	26
457.000	29
458.000	25
459.000	24
460.000	25
461.000	20
462.000	19
463.000	18
464.000	16
465.000	15
466.000	18
467.000	16
468.000	18
469.000	18
470.000	17
471.000	21
472.000	22
473.000	22
474.000	28
475.000	27
476.000	33
477.000	38
478.000	37
479.000	42
480.000	44
481.000	43
482.000	45
483.000	47
484.000	41
485.000	44
486.000	40
487.000	39
488.000	32
489.000	27
490.000	26
491.000	23
492.000	23
493.000	23
494.000	20
495.000	17
496.000	17
497.000	17
498.000	19
499.000	18
500.000	17
501.000	18
502.000	17
503.000	21
504.000	18
505.000	20
506.000	20
507.000	22
508.000	22
509.000	24
510.000	21
511.000	23
512.000	24
513.000	26
514.000	25
515.000	26
516.000	28
517.000	29
518.000	28
519.000	29
520.000	31
521.000	34
522.000	35
523.000	41
524.000	39
525.000	42
526.000	42
527.000	46
528.000	50
529.000	45
530.000	48
531.000	46
532.000	41
533.000	39
534.000	37
535.000	35
536.000	33
537.000	30
538.000	28
539.000	28
540.000	23
541.000	23
542.000	25
543.000	26
544.000	23
545.000	21
546.000	25
547.000	27
548.000	27
549.000	25
550.000	27
551.000	28
552.000	27
553.000	26
554.000	29
555.000	31
556.000	29
557.000	31
558.000	30
559.000	30
560.000	32
561.000	30
562.000	36
563.000	38
564.000	40
565.000	42
566.000	48
567.000	49
568.000	54
569.000	57
570.000	68
571.000	72
572.000	82
573.000	80
574.000	90
575.000	92
576.000	100
577.000	95
578.000	99
579.000	88
580.000	83
581.000	81
582.000	70
583.000	61
584.000	56
585.000	50
586.000	49
587.000	41
588.000	38
589.000	34
590.000	34
591.000	33
592.000	33
593.000	35
594.000	31
595.000	30
596.000	32
597.000	32
598.000	29
599.000	35
600.000	35
601.000	39
602.000	41
603.000	41
604.000	44
605.000	53
606.000	67
607.000	77
608.000	91
609.000	130
610.000	183
611.000	243
612.000	356
613.000	493
614.000	668
615.000	912
616.000	1207
617.000	1518
618.000	1941
619.000	2358
620.000	2799
621.000	3187
622.000	3578
623.000	3880
624.000	4117
625.000	4257
626.000	4201
627.000	4067
628.000	3797
629.000	3492
630.000	3056
631.000	2602
632.000	2180
633.000	1762
634.000	1399
635.000	1096
636.000	805
637.000	601
638.000	430
639.000	316
640.000	224
641.000	166
642.000	119
643.000	101
644.000	81
645.000	72
646.000	63
647.000	62
648.000	59
649.000	60
650.000	53
651.000	58
652.000	62
653.000	52
654.000	60
655.000	63
656.000	58
657.000	60
658.000	57
659.000	59
660.000	62
661.000	62
662.000	62
663.000	61
664.000	64
665.000	67
666.000	68
667.000	73
668.000	71
669.000	72
670.000	78
671.000	91
672.000	90
673.000	100
674.000	114
675.000	130
676.000	151
677.000	175
678.000	207
679.000	253
680.000	301
681.000	353
682.000	414
683.000	469
684.000	544
685.000	603
686.000	652
687.000	691
688.000	733
689.000	736
690.000	735
691.000	704
692.000	666
693.000	616
694.000	532
695.000	492
696.000	425
697.000	354
698.000	291
699.000	242
700.000	200
701.000	159
702.000	130
703.000	107
704.000	93
705.000	81
706.000	74
707.000	73
708.000	65
709.000	67
710.000	62
711.000	62
712.000	64
713.000	64
714.000	69
715.000	65
716.000	68
717.000	68
718.000	74
719.000	80
720.000	80
721.000	81
722.000	90
723.000	86
724.000	89
725.000	89
726.000	92
727.000	94
728.000	93
729.000	95
730.000	92
731.000	90
732.000	85
733.000	88
734.000	82
735.000	85
736.000	82
737.000	79
738.000	78
739.000	75
740.000	73
741.000	68
742.000	71
743.000	75
744.000	74
745.000	69
746.000	76
747.000	71
748.000	74
749.000	66
750.000	77
751.000	74
752.000	75
753.000	72
754.000	74
755.000	78
756.000	73
757.000	68
758.000	68
759.000	73
760.000	71
761.000	75
762.000	72
763.000	78
764.000	77
765.000	78
766.000	74
767.000	80
768.000	80
769.000	80
770.000	85
771.000	84
772.000	86
773.000	84
774.000	93
775.000	95
776.000	99
777.000	89
778.000	101
779.000	105
780.000	115
781.000	123
782.000	113
783.000	127
784.000	124
785.000	133
786.000	137
787.000	130
788.000	136
789.000	143
790.000	146
791.000	133
792.000	145
793.000	147
794.000	152
795.000	148
796.000	151
797.000	140
798.000	149
799.000	158
800.000	154
801.000	153
802.000	156
803.000	153
804.000	164
805.000	158
806.000	166
807.000	167
808.000	181
809.000	194
810.000	209
811.000	217
812.000	244
813.000	257
814.000	260
815.000	273
816.000	297
817.000	295
818.000	314
819.000	310
820.000	308
821.000	302
822.000	307
823.000	282
824.000	270
825.000	254
826.000	232
827.000	220
828.000	199
829.000	184
830.000	174
831.000	163
832.000	152
833.000	143
834.000	129
835.000	128
836.000	128
837.000	127
838.000	123
839.000	122
840.000	132
841.000	130
842.000	129
843.000	124
844.000	126
845.000	138
846.000	129
847.000	129
848.000	126
849.000	120
850.000	126
851.000	117
852.000	122
853.000	126
854.000	123
855.000	118
856.000	126
857.000	120
858.000	118
859.000	121
860.000	116
861.000	120
862.000	117
863.000	120
864.000	114
865.000	121
866.000	117
867.000	116
868.000	129
869.000	113
870.000	115
871.000	122
872.000	116
873.000	119
874.000	117
875.000	122
876.000	123
877.000	119
878.000	111
879.000	121
880.000	121
881.000	120
882.000	117
883.000	117
884.000	121
885.000	117
886.000	121
887.000	120
888.000	121
889.000	121
890.000	125
891.000	121
892.000	123
893.000	125
894.000	131
895.000	125
896.000	134
897.000	134
898.000	144
899.000	145
900.000	141
901.000	149
902.000	147
903.000	149
904.000	156
905.000	163
906.000	159
907.000	162
908.000	162
909.000	166
910.000	172
911.000	167
912.000	162
913.000	170
914.000	167
915.000	167
916.000	173
917.000	180
918.000	177
919.000	179
920.000	185
921.000	185
922.000	173
923.000	183
924.000	189
925.000	182
926.000	181
927.000	193
928.000	193
929.000	190
930.000	191
931.000	198
932.000	202
933.000	217
934.000	219
935.000	226
936.000	228
937.000	239
938.000	240
939.000	256
940.000	254
941.000	248
942.000	254
943.000	263
944.000	260
945.000	260
946.000	247
947.000	249
948.000	245
949.000	227
950.000	218
951.000	221
952.000	217
953.000	211
954.000	195
955.000	193
956.000	187
957.000	182
958.000	187
959.000	177
960.000	180
961.000	175
962.000	173
963.000	171
964.000	176
965.000	181
966.000	181
967.000	181
968.000	179
969.000	192
970.000	181
971.000	180
972.000	186
973.000	182
974.000	172
975.000	182
976.000	177
977.000	172
978.000	176
979.000	165
980.000	167
981.000	161
982.000	168
983.000	150
984.000	156
985.000	157
986.000	148
987.000	143
988.000	150
989.000	138
990.000	141
991.000	138
992.000	144
993.000	135
994.000	139
995.000	141
996.000	134
997.000	138
998.000	129
999.000	137
1000.000	128
1001.000	132
1002.000	135
1003.000	134
1004.000	132
1005.000	135
1006.000	134
1007.000	133
1008.000	134
1009.000	135
1010.000	133
1011.000	132
1012.000	134
1013.000	138
1014.000	136
1015.000	139
1016.000	138
1017.000	131
1018.000	135
1019.000	135
1020.000	147
1021.000	140
1022.000	138
1023.000	135
1024.000	139
1025.000	135
1026.000	140
1027.000	139
1028.000	140
1029.000	143
1030.000	149
1031.000	142
1032.000	135
1033.000	142
1034.000	140
1035.000	138
1036.000	148
1037.000	143
1038.000	142
1039.000	145
1040.000	148
1041.000	150
1042.000	145
1043.000	145
1044.000	146
1045.000	148
1046.000	147
1047.000	147
1048.000	148
1049.000	146
1050.000	155
1051.000	155
1052.000	152
1053.000	153
1054.000	157
1055.000	159
1056.000	148
1057.000	157
1058.000	159
1059.000	161
1060.000	155
1061.000	154
1062.000	161
1063.000	156
1064.000	160
1065.000	154
1066.000	165
1067.000	151
1068.000	156
1069.000	155
1070.000	160
1071.000	154
1072.000	159
1073.000	149
1074.000	155
1075.000	155
1076.000	160
1077.000	157
1078.000	150
1079.000	158
1080.000	154
1081.000	157
1082.000	160
1083.000	154
1084.000	151
1085.000	156
1086.000	150
1087.000	158
1088.000	158
1089.000	154
1090.000	166
1091.000	157
1092.000	160
1093.000	169
1094.000	167
1095.000	160
1096.000	165
1097.000	165
1098.000	174
1099.000	168
1100.000	171
1101.000	174
1102.000	169
1103.000	165
1104.000	164
1105.000	171
1106.000	169
1107.000	163
1108.000	163
1109.000	165
1110.000	160
1111.000	162
1112.000	164
1113.000	166
1114.000	155
1115.000	157
1116.000	151
1117.000	163
1118.000	162
1119.000	158
1120.000	158
1121.000	157
1122.000	160
1123.000	155
1124.000	157
1125.000	164
1126.000	157
1127.000	156
1128.000	157
1129.000	153
1130.000	160
1131.000	151
1132.000	160
1133.000	166
1134.000	161
1135.000	165
1136.000	162
1137.000	161
1138.000	167
1139.000	157
1140.000	168
1141.000	170
1142.000	158
1143.000	163
1144.000	160
1145.000	168
1146.000	166
1147.000	167
1148.000	170
1149.000	164
1150.000	162
1151.000	173
1152.000	169
1153.000	162
1154.000	165
1155.000	174
1156.000	173
1157.000	175
1158.000	176
1159.000	174
1160.000	174
1161.000	182
1162.000	173
1163.000	179
1164.000	177
1165.000	173
1166.000	176
1167.000	177
1168.000	169
1169.000	170
1170.000	162
1171.000	173
1172.000	164
1173.000	164
1174.000	164
1175.000	159
1176.000	162
1177.000	156
1178.000	158
1179.000	163
1180.000	154
1181.000	148
1182.000	152
1183.000	156
1184.000	155
1185.000	156
1186.000	153
1187.000	163
1188.000	157
1189.000	151
1190.000	146
1191.000	157
1192.000	157
1193.000	161
1194.000	163
1195.000	160
1196.000	153
1197.000	162
1198.000	154
1199.000	156
1200.000	158
1201.000	161
1202.000	167
1203.000	156
1204.000	156
1205.000	161
1206.000	165
1207.000	160
1208.000	162
1209.000	157
1210.000	166
1211.000	161
1212.000	164
1213.000	154
1214.000	160
1215.000	168
1216.000	159
1217.000	160
1218.000	161
1219.000	164
1220.000	166
1221.000	163
1222.000	160
1223.000	162
1224.000	167
1225.000	165
1226.000	163
1227.000	162
1228.000	171
1229.000	166
1230.000	163
1231.000	168
1232.000	164
1233.000	161
1234.000	171
1235.000	165
1236.000	161
1237.000	164
1238.000	160
1239.000	169
1240.000	167
1241.000	168
1242.000	163
1243.000	162
1244.000	161
1245.000	165
1246.000	167
1247.000	160
1248.000	164
1249.000	167
1250.000	168
1251.000	165
1252.000	164
1253.000	159
1254.000	163
1255.000	166
1256.000	168
1257.000	160
1258.000	167
1259.000	157
1260.000	168
1261.000	159
1262.000	160
1263.000	169
1264.000	166
1265.000	161
1266.000	161
1267.000	163
1268.000	156
1269.000	163
1270.000	161
1271.000	169
1272.000	161
1273.000	163
1274.000	161
1275.000	159
1276.000	161
1277.000	157
1278.000	160
1279.000	161
1280.000	160
1281.000	172
1282.000	162
1283.000	157
1284.000	165
1285.000	167
1286.000	169
1287.000	164
1288.000	165
1289.000	171
1290.000	164
1291.000	171
1292.000	171
1293.000	168
1294.000	177
1295.000	175
1296.000	170
1297.000	176
1298.000	177
1299.000	178
1300.000	183
1301.000	176
1302.000	179
1303.000	182
1304.000	186
1305.000	189
1306.000	183
1307.000	177
1308.000	185
1309.000	173
1310.000	175
1311.000	177
1312.000	173
1313.000	174
1314.000	169
1315.000	177
1316.000	175
1317.000	170
1318.000	166
1319.000	166
1320.000	166
1321.000	172
1322.000	154
1323.000	168
1324.000	171
1325.000	170
1326.000	167
1327.000	158
1328.000	164
1329.000	171
1330.000	156
1331.000	161
1332.000	169
1333.000	168
1334.000	168
1335.000	167
1336.000	163
1337.000	167
1338.000	165
1339.000	166
1340.000	166
1341.000	169
1342.000	174
1343.000	172
1344.000	167
1345.000	177
1346.000	164
1347.000	167
1348.000	172
1349.000	181
1350.000	182
1351.000	173
1352.000	183
1353.000	180
1354.000	178
1355.000	189
1356.000	193
1357.000	198
1358.000	207
1359.000	221
1360.000	229
1361.000	250
1362.000	272
1363.000	295
1364.000	325
1365.000	350
1366.000	388
1367.000	425
1368.000	477
1369.000	526
1370.000	573
1371.000	618
1372.000	667
1373.000	715
1374.000	761
1375.000	807
1376.000	825
1377.000	851
1378.000	888
1379.000	880
1380.000	895
1381.000	877
1382.000	866
1383.000	840
1384.000	799
1385.000	764
1386.000	719
1387.000	683
1388.000	617
1389.000	582
1390.000	527
1391.000	485
1392.000	438
1393.000	397
1394.000	351
1395.000	311
1396.000	298
1397.000	264
1398.000	245
1399.000	225
1400.000	215
1401.000	198
1402.000	187
1403.000	184
1404.000	170
1405.000	172
1406.000	166
1407.000	173
1408.000	164
1409.000	159
1410.000	165
1411.000	165
1412.000	164
1413.000	166
1414.000	165
1415.000	162
1416.000	163
1417.000	166
1418.000	162
1419.000	162
1420.000	159
1421.000	158
1422.000	161
1423.000	164
1424.000	157
1425.000	171
1426.000	163
1427.000	160
1428.000	158
1429.000	163
1430.000	165
1431.000	161
1432.000	160
1433.000	161
1434.000	162
1435.000	166
1436.000	167
1437.000	163
1438.000	165
1439.000	159
1440.000	163
1441.000	175
1442.000	168
1443.000	169
1444.000	165
1445.000	178
1446.000	168
1447.000	178
1448.000	170
1449.000	175
1450.000	177
1451.000	176
1452.000	176
1453.000	177
1454.000	169
1455.000	171
1456.000	171
1457.000	183
1458.000	171
1459.000	181
1460.000	181
1461.000	174
1462.000	174
1463.000	176
1464.000	182
1465.000	178
1466.000	174
1467.000	174
1468.000	175
1469.000	171
1470.000	169
1471.000	166
1472.000	181
1473.000	165
1474.000	171
1475.000	168
1476.000	163
1477.000	165
1478.000	170
1479.000	175
1480.000	166
1481.000	171
1482.000	174
1483.000	166
1484.000	170
1485.000	169
1486.000	166
1487.000	167
1488.000	170
1489.000	170
1490.000	173
1491.000	171
1492.000	168
1493.000	172
1494.000	171
1495.000	176
1496.000	172
1497.000	169
1498.000	174
1499.000	168
1500.000	172
1501.000	177
1502.000	177
1503.000	182
1504.000	174
1505.000	177
1506.000	170
1507.000	175
1508.000	175
1509.000	171
1510.000	182
1511.000	174
1512.000	179
1513.000	181
1514.000	178
1515.000	179
1516.000	180
1517.000	184
1518.000	180
1519.000	183
1520.000	185
1521.000	193
1522.000	196
1523.000	192
1524.000	199
1525.000	202
1526.000	205
1527.000	212
1528.000	211
1529.000	223
1530.000	232
1531.000	239
1532.000	237
1533.000	261
1534.000	265
1535.000	283
1536.000	284
1537.000	286
1538.000	300
1539.000	303
1540.000	323
1541.000	319
1542.000	321
1543.000	318
1544.000	328
1545.000	319
1546.000	322
1547.000	325
1548.000	324
1549.000	315
1550.000	302
1551.000	304
1552.000	299
1553.000	280
1554.000	285
1555.000	286
1556.000	273
1557.000	268
1558.000	267
1559.000	258
1560.000	261
1561.000	257
1562.000	257
1563.000	264
1564.000	272
1565.000	267
1566.000	274
1567.000	275
1568.000	287
1569.000	282
1570.000	293
1571.000	297
1572.000	297
1573.000	308
1574.000	313
1575.000	329
1576.000	324
1577.000	334
1578.000	347
1579.000	352
1580.000	359
1581.000	374
1582.000	376
1583.000	384
1584.000	409
1585.000	416
1586.000	427
1587.000	433
1588.000	442
1589.000	453
1590.000	471
1591.000	470
1592.000	493
1593.000	494
1594.000	508
1595.000	512
1596.000	532
1597.000	541
1598.000	536
1599.000	552
1600.000	571
1601.000	566
1602.000	559
1603.000	572
1604.000	582
1605.000	578
1606.000	577
1607.000	585
1608.000	583
1609.000	574
1610.000	589
1611.000	569
1612.000	568
1613.000	570
1614.000	548
1615.000	557
1616.000	547
1617.000	546
1618.000	539
1619.000	532
1620.000	527
1621.000	511
1622.000	494
1623.000	485
1624.000	474
1625.000	464
1626.000	451
1627.000	440
1628.000	433
1629.000	419
1630.000	411
1631.000	393
1632.000	396
1633.000	387
1634.000	356
1635.000	362
1636.000	348
1637.000	339
1638.000	331
1639.000	325
1640.000	307
1641.000	285
1642.000	293
1643.000	280
1644.000	269
1645.000	264
1646.000	260
1647.000	256
1648.000	246
1649.000	245
1650.000	238
1651.000	238
1652.000	219
1653.000	222
1654.000	212
1655.000	206
1656.000	196
1657.000	209
1658.000	194
1659.000	189
1660.000	188
1661.000	190
1662.000	187
1663.000	181
1664.000	186
1665.000	176
1666.000	170
1667.000	170
1668.000	173
1669.000	178
1670.000	172
1671.000	171
1672.000	176
1673.000	169
1674.000	167
1675.000	179
1676.000	186
1677.000	185
1678.000	189
1679.000	200
1680.000	203
1681.000	215
1682.000	219
1683.000	230
1684.000	256
1685.000	262
1686.000	280
1687.000	302
1688.000	315
1689.000	337
1690.000	353
1691.000	377
1692.000	411
1693.000	419
1694.000	433
1695.000	461
1696.000	471
1697.000	480
1698.000	487
1699.000	517
1700.000	500
1701.000	533
1702.000	512
1703.000	521
1704.000	511
1705.000	508
1706.000	486
1707.000	464
1708.000	447
1709.000	432
1710.000	401
1711.000	387
1712.000	366
1713.000	346
1714.000	323
1715.000	288
1716.000	277
1717.000	256
1718.000	238
1719.000	218
1720.000	198
1721.000	189
1722.000	177
1723.000	172
1724.000	162
1725.000	161
1726.000	152
1727.000	146
1728.000	149
1729.000	144
1730.000	138
1731.000	136
1732.000	136
1733.000	136
1734.000	139
1735.000	135
1736.000	137
1737.000	136
1738.000	132
1739.000	134
1740.000	141
1741.000	142
1742.000	134
1743.000	133
1744.000	135
1745.000	134
1746.000	131
1747.000	133
1748.000	135
1749.000	142
1750.000	136
1751.000	140
1752.000	145
1753.000	145
1754.000	139
1755.000	142
1756.000	143
1757.000	145
1758.000	151
1759.000	142
1760.000	146
1761.000	140
1762.000	150
1763.000	161
1764.000	160
1765.000	155
1766.000	154
1767.000	156
1768.000	153
1769.000	155
1770.000	162
1771.000	165
1772.000	165
1773.000	168
1774.000	164
1775.000	174
1776.000	179
1777.000	173
1778.000	169
1779.000	179
1780.000	173
1781.000	176
1782.000	169
1783.000	180
1784.000	181
1785.000	184
1786.000	181
1787.000	182
1788.000	177
1789.000	180
1790.000	191
1791.000	182
1792.000	178
1793.000	179
1794.000	188
1795.000	189
1796.000	183
1797.000	179
1798.000	187
1799.000	180
1800.000	184
1801.000	180
1802.000	177
1803.000	173
1804.000	176
1805.000	179
1806.000	180
1807.000	171
1808.000	167
1809.000	171
1810.000	172
1811.000	164
1812.000	160
1813.000	159
1814.000	162
1815.000	155
1816.000	158
1817.000	149
1818.000	148
1819.000	156
1820.000	148
1821.000	136
1822.000	137
1823.000	142
1824.000	144
1825.000	132
1826.000	131
1827.000	122
1828.000	133
1829.000	121
1830.000	126
1831.000	120
1832.000	122
1833.000	119
1834.000	118
1835.000	112
1836.000	108
1837.000	110
1838.000	110
1839.000	107
1840.000	106
1841.000	105
1842.000	107
1843.000	102
1844.000	99
1845.000	94
1846.000	98
1847.000	97
1848.000	95
1849.000	96
1850.000	95
1851.000	94
1852.000	90
1853.000	84
1854.000	92
1855.000	86
1856.000	85
1857.000	80
1858.000	86
1859.000	79
1860.000	83
1861.000	83
1862.000	81
1863.000	76
1864.000	83
1865.000	79
1866.000	77
1867.000	77
1868.000	78
1869.000	76
1870.000	74
1871.000	71
1872.000	77
1873.000	71
1874.000	74
1875.000	69
1876.000	75
1877.000	75
1878.000	74
1879.000	71
1880.000	69
1881.000	68
1882.000	74
1883.000	73
1884.000	75
1885.000	71
1886.000	70
1887.000	72
1888.000	73
1889.000	69
1890.000	76
1891.000	72
1892.000	77
1893.000	72
1894.000	75
1895.000	78
1896.000	81
1897.000	79
1898.000	87
1899.000	85
1900.000	93
1901.000	89
1902.000	96
1903.000	101
1904.000	101
1905.000	103
1906.000	106
1907.000	108
1908.000	114
1909.000	112
1910.000	117
1911.000	120
1912.000	117
1913.000	115
1914.000	113
1915.000	110
1916.000	107
1917.000	103
1918.000	102
1919.000	96
1920.000	97
1921.000	95
1922.000	88
1923.000	87
1924.000	82
1925.000	78
1926.000	81
1927.000	71
1928.000	71
1929.000	69
1930.000	69
1931.000	66
1932.000	67
1933.000	67
1934.000	60
1935.000	68
1936.000	63
1937.000	62
1938.000	62
1939.000	65
1940.000	61
1941.000	63
1942.000	65
1943.000	68
1944.000	61
1945.000	66
1946.000	62
1947.000	66
1948.000	64
1949.000	56
1950.000	58
1951.000	62
1952.000	61
1953.000	58
1954.000	65
1955.000	57
1956.000	56
1957.000	60
1958.000	53
1959.000	57
1960.000	54
1961.000	53
1962.000	55
1963.000	52
1964.000	48
1965.000	49
1966.000	49
1967.000	51
1968.000	51
1969.000	49
1970.000	46
1971.000	51
1972.000	48
1973.000	50
1974.000	47
1975.000	51
1976.000	46
1977.000	50
1978.000	46
1979.000	47
1980.000	50
1981.000	47
1982.000	45
1983.000	50
1984.000	48
1985.000	51
1986.000	48
1987.000	50
1988.000	47
1989.000	47
1990.000	49
1991.000	45
1992.000	47
1993.000	46
1994.000	49
1995.000	44
1996.000	45
1997.000	46
1998.000	47
1999.000	49
2000.000	46
2001.000	44
2002.000	49
2003.000	45
2004.000	50
2005.000	47
2006.000	46
2007.000	49
2008.000	46
2009.000	46
2010.000	46
2011.000	47
2012.000	45
2013.000	45
2014.000	45
2015.000	47
2016.000	46
2017.000	46
2018.000	45
2019.000	48
2020.000	44
2021.000	42
2022.000	42
2023.000	45
2024.000	46
2025.000	43
2026.000	48
2027.000	44
2028.000	47
2029.000	44
2030.000	43
2031.000	42
2032.000	42
2033.000	38
2034.000	45
2035.000	46
2036.000	46
2037.000	46
2038.000	42
2039.000	45
2040.000	42
2041.000	42
2042.000	44
2043.000	46
2044.000	47
2045.000	44
2046.000	45
2047.000	44
2048.000	0
