Date:	23-Sep-20		Time:	11:32 PM		Version no:	0.00		Project name:	55		Sample name:	222		Section name:	section		Position	0.000000	mm	E0	0.000000	keV	E1	1.000000	keV/channel	sample surface	2.000000	cm	Tube anode:	Mo		Tube voltage:	30	kV	Tube current:	30	mA	gain	15		std. database			resultfile	result		matrix element	11		sample thickness	1.000000		air passage	0.560000	cm	comments	not in position		peaking_time	0.300000	m-sec	trigger_threshold	40.000000	V	mca_bin_width	2.000000	no:	number_mca_channels	2048.000000	no:	gap_time	2048.000000	m-sec	trigger_peaking_time	2048.000000	m-sec	GAINDAC	400		HIGHGAIN	400		TAURC	400		RCTAU	400		RCTAUFRAC	400		livetime	13.334824	seconds	runtime	15.000351	seconds	input_count_rate	47769.585089	cps	output_count_rate	42465.604889	cps	triggers	704307	seconds	events_in_run	618783	seconds	channel	content		1.000	0
2.000	0
3.000	0
4.000	0
5.000	0
6.000	0
7.000	0
8.000	0
9.000	0
10.000	0
11.000	0
12.000	0
13.000	0
14.000	0
15.000	0
16.000	0
17.000	0
18.000	0
19.000	0
20.000	0
21.000	0
22.000	0
23.000	0
24.000	0
25.000	0
26.000	0
27.000	0
28.000	0
29.000	0
30.000	0
31.000	0
32.000	1
33.000	0
34.000	0
35.000	0
36.000	0
37.000	0
38.000	0
39.000	0
40.000	0
41.000	0
42.000	1
43.000	0
44.000	0
45.000	0
46.000	0
47.000	0
48.000	0
49.000	0
50.000	1
51.000	2
52.000	1
53.000	4
54.000	3
55.000	4
56.000	6
57.000	8
58.000	13
59.000	17
60.000	25
61.000	26
62.000	29
63.000	29
64.000	29
65.000	29
66.000	27
67.000	25
68.000	24
69.000	24
70.000	26
71.000	27
72.000	27
73.000	24
74.000	23
75.000	23
76.000	23
77.000	24
78.000	22
79.000	26
80.000	23
81.000	24
82.000	23
83.000	23
84.000	28
85.000	22
86.000	26
87.000	23
88.000	24
89.000	22
90.000	21
91.000	23
92.000	20
93.000	23
94.000	23
95.000	21
96.000	19
97.000	24
98.000	19
99.000	21
100.000	22
101.000	21
102.000	20
103.000	19
104.000	17
105.000	20
106.000	20
107.000	18
108.000	20
109.000	18
110.000	19
111.000	17
112.000	17
113.000	20
114.000	16
115.000	17
116.000	19
117.000	19
118.000	18
119.000	18
120.000	17
121.000	19
122.000	17
123.000	18
124.000	16
125.000	15
126.000	16
127.000	16
128.000	15
129.000	14
130.000	13
131.000	13
132.000	16
133.000	16
134.000	16
135.000	14
136.000	14
137.000	17
138.000	14
139.000	16
140.000	18
141.000	20
142.000	21
143.000	24
144.000	23
145.000	27
146.000	25
147.000	24
148.000	21
149.000	23
150.000	23
151.000	21
152.000	20
153.000	20
154.000	19
155.000	19
156.000	18
157.000	16
158.000	15
159.000	13
160.000	13
161.000	17
162.000	18
163.000	18
164.000	23
165.000	29
166.000	37
167.000	54
168.000	62
169.000	65
170.000	73
171.000	79
172.000	70
173.000	63
174.000	56
175.000	43
176.000	40
177.000	31
178.000	31
179.000	32
180.000	28
181.000	29
182.000	38
183.000	43
184.000	59
185.000	73
186.000	94
187.000	119
188.000	141
189.000	168
190.000	189
191.000	191
192.000	184
193.000	172
194.000	140
195.000	115
196.000	85
197.000	66
198.000	48
199.000	36
200.000	25
201.000	19
202.000	16
203.000	14
204.000	15
205.000	15
206.000	15
207.000	12
208.000	13
209.000	14
210.000	15
211.000	16
212.000	16
213.000	17
214.000	18
215.000	19
216.000	21
217.000	22
218.000	26
219.000	29
220.000	35
221.000	38
222.000	39
223.000	39
224.000	41
225.000	38
226.000	37
227.000	31
228.000	27
229.000	25
230.000	21
231.000	16
232.000	16
233.000	12
234.000	13
235.000	12
236.000	12
237.000	11
238.000	11
239.000	11
240.000	12
241.000	11
242.000	14
243.000	11
244.000	12
245.000	14
246.000	17
247.000	19
248.000	23
249.000	31
250.000	43
251.000	56
252.000	71
253.000	94
254.000	105
255.000	129
256.000	140
257.000	141
258.000	144
259.000	133
260.000	105
261.000	95
262.000	76
263.000	55
264.000	43
265.000	35
266.000	26
267.000	22
268.000	20
269.000	20
270.000	21
271.000	21
272.000	24
273.000	27
274.000	26
275.000	27
276.000	29
277.000	30
278.000	26
279.000	24
280.000	29
281.000	26
282.000	29
283.000	35
284.000	43
285.000	50
286.000	61
287.000	70
288.000	75
289.000	77
290.000	84
291.000	80
292.000	70
293.000	66
294.000	52
295.000	48
296.000	39
297.000	35
298.000	25
299.000	23
300.000	22
301.000	21
302.000	19
303.000	21
304.000	20
305.000	23
306.000	19
307.000	24
308.000	27
309.000	28
310.000	31
311.000	33
312.000	36
313.000	47
314.000	54
315.000	74
316.000	96
317.000	128
318.000	174
319.000	225
320.000	278
321.000	338
322.000	390
323.000	430
324.000	453
325.000	448
326.000	434
327.000	376
328.000	339
329.000	277
330.000	232
331.000	167
332.000	124
333.000	89
334.000	66
335.000	49
336.000	41
337.000	35
338.000	31
339.000	34
340.000	38
341.000	46
342.000	55
343.000	72
344.000	95
345.000	126
346.000	175
347.000	263
348.000	386
349.000	611
350.000	932
351.000	1414
352.000	2165
353.000	3132
354.000	4427
355.000	6020
356.000	7929
357.000	9842
358.000	11837
359.000	13511
360.000	14650
361.000	15282
362.000	15213
363.000	14410
364.000	13090
365.000	11215
366.000	9294
367.000	7272
368.000	5461
369.000	3879
370.000	2698
371.000	1783
372.000	1137
373.000	688
374.000	422
375.000	274
376.000	180
377.000	139
378.000	131
379.000	138
380.000	175
381.000	216
382.000	285
383.000	373
384.000	514
385.000	692
386.000	920
387.000	1165
388.000	1445
389.000	1689
390.000	1951
391.000	2135
392.000	2284
393.000	2298
394.000	2200
395.000	2085
396.000	1857
397.000	1587
398.000	1287
399.000	1019
400.000	757
401.000	550
402.000	379
403.000	256
404.000	168
405.000	109
406.000	65
407.000	46
408.000	28
409.000	22
410.000	15
411.000	11
412.000	10
413.000	8
414.000	8
415.000	9
416.000	9
417.000	8
418.000	8
419.000	10
420.000	8
421.000	9
422.000	9
423.000	9
424.000	10
425.000	9
426.000	12
427.000	17
428.000	20
429.000	22
430.000	32
431.000	44
432.000	58
433.000	75
434.000	102
435.000	125
436.000	152
437.000	183
438.000	209
439.000	228
440.000	238
441.000	244
442.000	233
443.000	228
444.000	206
445.000	178
446.000	153
447.000	130
448.000	102
449.000	80
450.000	69
451.000	62
452.000	51
453.000	49
454.000	42
455.000	39
456.000	39
457.000	35
458.000	31
459.000	31
460.000	27
461.000	25
462.000	26
463.000	23
464.000	20
465.000	19
466.000	19
467.000	20
468.000	24
469.000	22
470.000	23
471.000	24
472.000	30
473.000	30
474.000	33
475.000	38
476.000	41
477.000	46
478.000	50
479.000	55
480.000	57
481.000	55
482.000	58
483.000	60
484.000	57
485.000	59
486.000	50
487.000	46
488.000	40
489.000	37
490.000	30
491.000	28
492.000	27
493.000	25
494.000	21
495.000	18
496.000	20
497.000	18
498.000	19
499.000	18
500.000	18
501.000	18
502.000	18
503.000	20
504.000	20
505.000	22
506.000	21
507.000	22
508.000	22
509.000	23
510.000	22
511.000	25
512.000	24
513.000	24
514.000	24
515.000	29
516.000	28
517.000	27
518.000	29
519.000	31
520.000	34
521.000	32
522.000	40
523.000	39
524.000	39
525.000	46
526.000	49
527.000	50
528.000	51
529.000	51
530.000	50
531.000	49
532.000	47
533.000	49
534.000	44
535.000	40
536.000	38
537.000	32
538.000	29
539.000	24
540.000	27
541.000	24
542.000	28
543.000	24
544.000	27
545.000	23
546.000	27
547.000	26
548.000	25
549.000	28
550.000	25
551.000	26
552.000	28
553.000	28
554.000	29
555.000	30
556.000	32
557.000	32
558.000	38
559.000	42
560.000	49
561.000	54
562.000	60
563.000	79
564.000	101
565.000	132
566.000	169
567.000	223
568.000	274
569.000	343
570.000	411
571.000	478
572.000	558
573.000	617
574.000	668
575.000	730
576.000	738
577.000	724
578.000	688
579.000	652
580.000	593
581.000	497
582.000	429
583.000	356
584.000	294
585.000	228
586.000	177
587.000	135
588.000	98
589.000	86
590.000	66
591.000	55
592.000	44
593.000	39
594.000	34
595.000	36
596.000	35
597.000	36
598.000	36
599.000	40
600.000	40
601.000	45
602.000	44
603.000	52
604.000	56
605.000	61
606.000	80
607.000	98
608.000	122
609.000	179
610.000	255
611.000	354
612.000	500
613.000	697
614.000	961
615.000	1317
616.000	1742
617.000	2237
618.000	2787
619.000	3397
620.000	4061
621.000	4661
622.000	5233
623.000	5725
624.000	5979
625.000	6139
626.000	6157
627.000	5903
628.000	5492
629.000	5030
630.000	4467
631.000	3849
632.000	3236
633.000	2627
634.000	2084
635.000	1623
636.000	1243
637.000	921
638.000	680
639.000	499
640.000	364
641.000	256
642.000	197
643.000	146
644.000	123
645.000	101
646.000	85
647.000	75
648.000	66
649.000	66
650.000	62
651.000	59
652.000	59
653.000	59
654.000	57
655.000	61
656.000	62
657.000	59
658.000	61
659.000	64
660.000	63
661.000	63
662.000	69
663.000	67
664.000	70
665.000	74
666.000	77
667.000	82
668.000	85
669.000	97
670.000	94
671.000	112
672.000	117
673.000	136
674.000	150
675.000	180
676.000	205
677.000	239
678.000	288
679.000	352
680.000	404
681.000	486
682.000	577
683.000	670
684.000	745
685.000	837
686.000	904
687.000	987
688.000	1019
689.000	1031
690.000	1013
691.000	969
692.000	935
693.000	837
694.000	744
695.000	664
696.000	574
697.000	471
698.000	402
699.000	318
700.000	255
701.000	200
702.000	160
703.000	137
704.000	104
705.000	92
706.000	78
707.000	70
708.000	70
709.000	63
710.000	60
711.000	64
712.000	65
713.000	62
714.000	68
715.000	70
716.000	66
717.000	72
718.000	77
719.000	77
720.000	79
721.000	89
722.000	97
723.000	102
724.000	106
725.000	110
726.000	108
727.000	116
728.000	122
729.000	117
730.000	115
731.000	119
732.000	115
733.000	109
734.000	108
735.000	109
736.000	92
737.000	89
738.000	87
739.000	90
740.000	78
741.000	78
742.000	78
743.000	76
744.000	72
745.000	79
746.000	75
747.000	69
748.000	73
749.000	74
750.000	70
751.000	71
752.000	74
753.000	73
754.000	68
755.000	68
756.000	69
757.000	77
758.000	74
759.000	74
760.000	74
761.000	76
762.000	72
763.000	75
764.000	72
765.000	78
766.000	80
767.000	77
768.000	78
769.000	77
770.000	80
771.000	84
772.000	90
773.000	88
774.000	88
775.000	92
776.000	98
777.000	102
778.000	111
779.000	111
780.000	120
781.000	126
782.000	128
783.000	138
784.000	136
785.000	146
786.000	141
787.000	139
788.000	150
789.000	155
790.000	152
791.000	155
792.000	154
793.000	150
794.000	147
795.000	151
796.000	156
797.000	155
798.000	150
799.000	153
800.000	149
801.000	151
802.000	154
803.000	159
804.000	163
805.000	166
806.000	165
807.000	175
808.000	187
809.000	187
810.000	208
811.000	216
812.000	237
813.000	246
814.000	262
815.000	273
816.000	287
817.000	296
818.000	303
819.000	314
820.000	311
821.000	301
822.000	293
823.000	284
824.000	265
825.000	255
826.000	234
827.000	216
828.000	205
829.000	182
830.000	162
831.000	156
832.000	151
833.000	140
834.000	145
835.000	136
836.000	135
837.000	128
838.000	134
839.000	131
840.000	141
841.000	129
842.000	137
843.000	134
844.000	130
845.000	140
846.000	135
847.000	132
848.000	133
849.000	128
850.000	124
851.000	131
852.000	126
853.000	123
854.000	123
855.000	125
856.000	113
857.000	121
858.000	114
859.000	119
860.000	119
861.000	120
862.000	119
863.000	116
864.000	119
865.000	124
866.000	111
867.000	112
868.000	114
869.000	124
870.000	123
871.000	113
872.000	120
873.000	121
874.000	118
875.000	116
876.000	121
877.000	120
878.000	112
879.000	117
880.000	117
881.000	124
882.000	120
883.000	121
884.000	119
885.000	124
886.000	123
887.000	116
888.000	122
889.000	121
890.000	125
891.000	127
892.000	131
893.000	133
894.000	128
895.000	135
896.000	142
897.000	137
898.000	144
899.000	149
900.000	143
901.000	145
902.000	150
903.000	152
904.000	158
905.000	152
906.000	164
907.000	160
908.000	165
909.000	175
910.000	169
911.000	170
912.000	177
913.000	171
914.000	173
915.000	167
916.000	172
917.000	182
918.000	173
919.000	173
920.000	179
921.000	181
922.000	177
923.000	185
924.000	192
925.000	192
926.000	186
927.000	191
928.000	193
929.000	198
930.000	204
931.000	204
932.000	203
933.000	210
934.000	226
935.000	223
936.000	239
937.000	234
938.000	232
939.000	249
940.000	260
941.000	264
942.000	267
943.000	267
944.000	263
945.000	263
946.000	259
947.000	256
948.000	255
949.000	235
950.000	230
951.000	223
952.000	211
953.000	202
954.000	202
955.000	195
956.000	182
957.000	191
958.000	189
959.000	184
960.000	168
961.000	179
962.000	179
963.000	177
964.000	180
965.000	184
966.000	181
967.000	181
968.000	182
969.000	186
970.000	193
971.000	188
972.000	197
973.000	182
974.000	186
975.000	172
976.000	184
977.000	177
978.000	173
979.000	167
980.000	167
981.000	170
982.000	161
983.000	162
984.000	158
985.000	157
986.000	151
987.000	149
988.000	148
989.000	147
990.000	140
991.000	142
992.000	145
993.000	138
994.000	140
995.000	134
996.000	139
997.000	138
998.000	137
999.000	140
1000.000	140
1001.000	131
1002.000	141
1003.000	140
1004.000	129
1005.000	138
1006.000	141
1007.000	132
1008.000	132
1009.000	136
1010.000	142
1011.000	137
1012.000	136
1013.000	143
1014.000	136
1015.000	131
1016.000	142
1017.000	137
1018.000	137
1019.000	142
1020.000	139
1021.000	143
1022.000	140
1023.000	142
1024.000	141
1025.000	144
1026.000	144
1027.000	149
1028.000	140
1029.000	147
1030.000	139
1031.000	155
1032.000	149
1033.000	148
1034.000	146
1035.000	147
1036.000	146
1037.000	144
1038.000	148
1039.000	152
1040.000	145
1041.000	156
1042.000	142
1043.000	147
1044.000	156
1045.000	148
1046.000	155
1047.000	150
1048.000	151
1049.000	160
1050.000	154
1051.000	153
1052.000	162
1053.000	157
1054.000	155
1055.000	153
1056.000	157
1057.000	153
1058.000	156
1059.000	163
1060.000	165
1061.000	162
1062.000	163
1063.000	161
1064.000	153
1065.000	156
1066.000	165
1067.000	157
1068.000	161
1069.000	162
1070.000	159
1071.000	159
1072.000	164
1073.000	162
1074.000	156
1075.000	157
1076.000	163
1077.000	162
1078.000	154
1079.000	161
1080.000	165
1081.000	167
1082.000	159
1083.000	156
1084.000	161
1085.000	157
1086.000	161
1087.000	163
1088.000	164
1089.000	165
1090.000	170
1091.000	169
1092.000	168
1093.000	175
1094.000	169
1095.000	173
1096.000	166
1097.000	175
1098.000	174
1099.000	170
1100.000	174
1101.000	177
1102.000	178
1103.000	176
1104.000	170
1105.000	171
1106.000	171
1107.000	172
1108.000	162
1109.000	169
1110.000	165
1111.000	161
1112.000	162
1113.000	172
1114.000	163
1115.000	164
1116.000	155
1117.000	167
1118.000	164
1119.000	160
1120.000	164
1121.000	156
1122.000	166
1123.000	164
1124.000	162
1125.000	163
1126.000	159
1127.000	156
1128.000	160
1129.000	164
1130.000	162
1131.000	167
1132.000	163
1133.000	165
1134.000	160
1135.000	162
1136.000	167
1137.000	168
1138.000	168
1139.000	162
1140.000	161
1141.000	172
1142.000	164
1143.000	164
1144.000	163
1145.000	165
1146.000	163
1147.000	173
1148.000	170
1149.000	166
1150.000	171
1151.000	168
1152.000	175
1153.000	179
1154.000	177
1155.000	183
1156.000	177
1157.000	180
1158.000	183
1159.000	183
1160.000	178
1161.000	188
1162.000	189
1163.000	185
1164.000	177
1165.000	174
1166.000	188
1167.000	188
1168.000	180
1169.000	179
1170.000	181
1171.000	166
1172.000	171
1173.000	171
1174.000	162
1175.000	161
1176.000	166
1177.000	164
1178.000	160
1179.000	161
1180.000	164
1181.000	164
1182.000	165
1183.000	167
1184.000	160
1185.000	158
1186.000	166
1187.000	161
1188.000	166
1189.000	162
1190.000	162
1191.000	157
1192.000	162
1193.000	165
1194.000	159
1195.000	164
1196.000	159
1197.000	156
1198.000	153
1199.000	164
1200.000	164
1201.000	164
1202.000	165
1203.000	161
1204.000	164
1205.000	171
1206.000	166
1207.000	172
1208.000	162
1209.000	165
1210.000	166
1211.000	163
1212.000	162
1213.000	166
1214.000	163
1215.000	181
1216.000	161
1217.000	169
1218.000	170
1219.000	168
1220.000	170
1221.000	170
1222.000	174
1223.000	169
1224.000	169
1225.000	176
1226.000	175
1227.000	168
1228.000	168
1229.000	173
1230.000	168
1231.000	171
1232.000	177
1233.000	169
1234.000	171
1235.000	171
1236.000	173
1237.000	174
1238.000	178
1239.000	164
1240.000	169
1241.000	174
1242.000	178
1243.000	170
1244.000	169
1245.000	170
1246.000	173
1247.000	168
1248.000	178
1249.000	167
1250.000	173
1251.000	169
1252.000	171
1253.000	178
1254.000	167
1255.000	172
1256.000	175
1257.000	165
1258.000	172
1259.000	171
1260.000	167
1261.000	172
1262.000	164
1263.000	166
1264.000	173
1265.000	166
1266.000	172
1267.000	165
1268.000	174
1269.000	171
1270.000	165
1271.000	166
1272.000	164
1273.000	176
1274.000	166
1275.000	169
1276.000	174
1277.000	168
1278.000	172
1279.000	176
1280.000	172
1281.000	169
1282.000	173
1283.000	168
1284.000	171
1285.000	172
1286.000	170
1287.000	172
1288.000	179
1289.000	184
1290.000	171
1291.000	180
1292.000	190
1293.000	188
1294.000	181
1295.000	182
1296.000	192
1297.000	194
1298.000	198
1299.000	203
1300.000	206
1301.000	202
1302.000	203
1303.000	208
1304.000	200
1305.000	199
1306.000	205
1307.000	210
1308.000	197
1309.000	200
1310.000	193
1311.000	197
1312.000	195
1313.000	193
1314.000	200
1315.000	196
1316.000	191
1317.000	190
1318.000	182
1319.000	179
1320.000	183
1321.000	185
1322.000	177
1323.000	185
1324.000	177
1325.000	168
1326.000	174
1327.000	173
1328.000	178
1329.000	168
1330.000	164
1331.000	174
1332.000	173
1333.000	174
1334.000	173
1335.000	172
1336.000	180
1337.000	171
1338.000	183
1339.000	169
1340.000	178
1341.000	174
1342.000	177
1343.000	171
1344.000	175
1345.000	173
1346.000	179
1347.000	179
1348.000	183
1349.000	184
1350.000	187
1351.000	181
1352.000	178
1353.000	186
1354.000	190
1355.000	194
1356.000	193
1357.000	202
1358.000	209
1359.000	221
1360.000	239
1361.000	240
1362.000	268
1363.000	296
1364.000	321
1365.000	354
1366.000	371
1367.000	419
1368.000	442
1369.000	488
1370.000	554
1371.000	586
1372.000	605
1373.000	656
1374.000	722
1375.000	757
1376.000	789
1377.000	815
1378.000	819
1379.000	837
1380.000	849
1381.000	824
1382.000	823
1383.000	817
1384.000	784
1385.000	723
1386.000	691
1387.000	644
1388.000	615
1389.000	563
1390.000	507
1391.000	458
1392.000	421
1393.000	384
1394.000	355
1395.000	317
1396.000	288
1397.000	270
1398.000	245
1399.000	227
1400.000	213
1401.000	212
1402.000	198
1403.000	186
1404.000	191
1405.000	183
1406.000	182
1407.000	179
1408.000	173
1409.000	181
1410.000	177
1411.000	176
1412.000	171
1413.000	173
1414.000	173
1415.000	174
1416.000	167
1417.000	173
1418.000	166
1419.000	173
1420.000	174
1421.000	170
1422.000	173
1423.000	173
1424.000	176
1425.000	176
1426.000	177
1427.000	163
1428.000	178
1429.000	171
1430.000	178
1431.000	168
1432.000	173
1433.000	177
1434.000	172
1435.000	174
1436.000	173
1437.000	173
1438.000	180
1439.000	176
1440.000	175
1441.000	175
1442.000	179
1443.000	174
1444.000	184
1445.000	180
1446.000	184
1447.000	177
1448.000	184
1449.000	183
1450.000	177
1451.000	187
1452.000	196
1453.000	185
1454.000	185
1455.000	192
1456.000	187
1457.000	189
1458.000	193
1459.000	190
1460.000	187
1461.000	191
1462.000	183
1463.000	188
1464.000	186
1465.000	179
1466.000	186
1467.000	183
1468.000	182
1469.000	179
1470.000	181
1471.000	174
1472.000	183
1473.000	184
1474.000	183
1475.000	178
1476.000	179
1477.000	179
1478.000	183
1479.000	178
1480.000	175
1481.000	184
1482.000	180
1483.000	179
1484.000	187
1485.000	174
1486.000	184
1487.000	174
1488.000	178
1489.000	181
1490.000	179
1491.000	183
1492.000	177
1493.000	178
1494.000	189
1495.000	185
1496.000	179
1497.000	180
1498.000	179
1499.000	187
1500.000	182
1501.000	183
1502.000	184
1503.000	180
1504.000	186
1505.000	182
1506.000	181
1507.000	179
1508.000	179
1509.000	194
1510.000	194
1511.000	185
1512.000	191
1513.000	190
1514.000	193
1515.000	186
1516.000	192
1517.000	190
1518.000	193
1519.000	199
1520.000	203
1521.000	201
1522.000	202
1523.000	205
1524.000	213
1525.000	208
1526.000	219
1527.000	220
1528.000	226
1529.000	227
1530.000	245
1531.000	251
1532.000	258
1533.000	259
1534.000	269
1535.000	284
1536.000	292
1537.000	300
1538.000	305
1539.000	309
1540.000	313
1541.000	324
1542.000	325
1543.000	331
1544.000	331
1545.000	325
1546.000	331
1547.000	330
1548.000	325
1549.000	317
1550.000	310
1551.000	299
1552.000	308
1553.000	296
1554.000	292
1555.000	278
1556.000	280
1557.000	272
1558.000	265
1559.000	271
1560.000	274
1561.000	273
1562.000	272
1563.000	273
1564.000	280
1565.000	290
1566.000	285
1567.000	289
1568.000	307
1569.000	299
1570.000	300
1571.000	319
1572.000	317
1573.000	319
1574.000	332
1575.000	335
1576.000	346
1577.000	359
1578.000	364
1579.000	381
1580.000	382
1581.000	391
1582.000	392
1583.000	414
1584.000	429
1585.000	431
1586.000	443
1587.000	461
1588.000	471
1589.000	477
1590.000	496
1591.000	512
1592.000	509
1593.000	526
1594.000	542
1595.000	538
1596.000	566
1597.000	570
1598.000	574
1599.000	574
1600.000	581
1601.000	593
1602.000	599
1603.000	617
1604.000	613
1605.000	617
1606.000	611
1607.000	613
1608.000	610
1609.000	613
1610.000	621
1611.000	619
1612.000	616
1613.000	611
1614.000	599
1615.000	596
1616.000	593
1617.000	583
1618.000	565
1619.000	578
1620.000	555
1621.000	546
1622.000	537
1623.000	512
1624.000	508
1625.000	490
1626.000	480
1627.000	468
1628.000	472
1629.000	458
1630.000	449
1631.000	422
1632.000	428
1633.000	403
1634.000	392
1635.000	381
1636.000	372
1637.000	353
1638.000	342
1639.000	340
1640.000	328
1641.000	331
1642.000	313
1643.000	299
1644.000	300
1645.000	290
1646.000	284
1647.000	274
1648.000	261
1649.000	262
1650.000	258
1651.000	239
1652.000	240
1653.000	237
1654.000	231
1655.000	229
1656.000	221
1657.000	209
1658.000	213
1659.000	205
1660.000	212
1661.000	202
1662.000	195
1663.000	201
1664.000	200
1665.000	198
1666.000	178
1667.000	186
1668.000	180
1669.000	181
1670.000	184
1671.000	184
1672.000	182
1673.000	190
1674.000	187
1675.000	186
1676.000	193
1677.000	197
1678.000	197
1679.000	205
1680.000	212
1681.000	227
1682.000	238
1683.000	248
1684.000	268
1685.000	279
1686.000	288
1687.000	320
1688.000	344
1689.000	362
1690.000	377
1691.000	392
1692.000	419
1693.000	434
1694.000	452
1695.000	483
1696.000	499
1697.000	497
1698.000	518
1699.000	532
1700.000	545
1701.000	545
1702.000	540
1703.000	547
1704.000	539
1705.000	521
1706.000	514
1707.000	500
1708.000	480
1709.000	464
1710.000	437
1711.000	410
1712.000	376
1713.000	355
1714.000	334
1715.000	312
1716.000	275
1717.000	261
1718.000	258
1719.000	238
1720.000	219
1721.000	201
1722.000	183
1723.000	182
1724.000	171
1725.000	163
1726.000	158
1727.000	163
1728.000	145
1729.000	154
1730.000	146
1731.000	148
1732.000	147
1733.000	139
1734.000	148
1735.000	144
1736.000	140
1737.000	135
1738.000	146
1739.000	149
1740.000	140
1741.000	144
1742.000	141
1743.000	143
1744.000	143
1745.000	145
1746.000	143
1747.000	148
1748.000	146
1749.000	151
1750.000	142
1751.000	152
1752.000	150
1753.000	149
1754.000	149
1755.000	149
1756.000	151
1757.000	151
1758.000	149
1759.000	156
1760.000	156
1761.000	160
1762.000	161
1763.000	163
1764.000	166
1765.000	167
1766.000	171
1767.000	164
1768.000	167
1769.000	171
1770.000	175
1771.000	176
1772.000	177
1773.000	177
1774.000	179
1775.000	183
1776.000	183
1777.000	177
1778.000	184
1779.000	191
1780.000	184
1781.000	192
1782.000	183
1783.000	196
1784.000	195
1785.000	194
1786.000	196
1787.000	191
1788.000	195
1789.000	195
1790.000	202
1791.000	195
1792.000	198
1793.000	191
1794.000	196
1795.000	193
1796.000	194
1797.000	198
1798.000	193
1799.000	195
1800.000	196
1801.000	191
1802.000	195
1803.000	188
1804.000	198
1805.000	190
1806.000	184
1807.000	189
1808.000	186
1809.000	176
1810.000	177
1811.000	178
1812.000	175
1813.000	172
1814.000	166
1815.000	169
1816.000	167
1817.000	166
1818.000	160
1819.000	153
1820.000	155
1821.000	151
1822.000	150
1823.000	151
1824.000	145
1825.000	148
1826.000	149
1827.000	131
1828.000	140
1829.000	138
1830.000	133
1831.000	131
1832.000	131
1833.000	130
1834.000	127
1835.000	127
1836.000	120
1837.000	121
1838.000	119
1839.000	121
1840.000	112
1841.000	118
1842.000	113
1843.000	110
1844.000	109
1845.000	107
1846.000	107
1847.000	105
1848.000	103
1849.000	96
1850.000	105
1851.000	100
1852.000	102
1853.000	101
1854.000	94
1855.000	95
1856.000	93
1857.000	92
1858.000	89
1859.000	90
1860.000	95
1861.000	87
1862.000	88
1863.000	88
1864.000	86
1865.000	88
1866.000	84
1867.000	81
1868.000	84
1869.000	84
1870.000	81
1871.000	80
1872.000	79
1873.000	78
1874.000	81
1875.000	80
1876.000	81
1877.000	76
1878.000	76
1879.000	76
1880.000	71
1881.000	81
1882.000	78
1883.000	73
1884.000	77
1885.000	72
1886.000	80
1887.000	75
1888.000	77
1889.000	77
1890.000	79
1891.000	79
1892.000	78
1893.000	82
1894.000	79
1895.000	80
1896.000	89
1897.000	85
1898.000	88
1899.000	94
1900.000	96
1901.000	96
1902.000	106
1903.000	110
1904.000	110
1905.000	112
1906.000	117
1907.000	114
1908.000	116
1909.000	119
1910.000	124
1911.000	125
1912.000	127
1913.000	126
1914.000	123
1915.000	120
1916.000	119
1917.000	105
1918.000	111
1919.000	105
1920.000	98
1921.000	102
1922.000	100
1923.000	94
1924.000	95
1925.000	86
1926.000	74
1927.000	78
1928.000	79
1929.000	72
1930.000	73
1931.000	74
1932.000	68
1933.000	67
1934.000	68
1935.000	72
1936.000	68
1937.000	66
1938.000	74
1939.000	69
1940.000	63
1941.000	69
1942.000	67
1943.000	71
1944.000	66
1945.000	65
1946.000	69
1947.000	68
1948.000	68
1949.000	65
1950.000	61
1951.000	65
1952.000	65
1953.000	62
1954.000	61
1955.000	61
1956.000	56
1957.000	59
1958.000	61
1959.000	60
1960.000	54
1961.000	60
1962.000	60
1963.000	58
1964.000	55
1965.000	52
1966.000	51
1967.000	49
1968.000	54
1969.000	49
1970.000	52
1971.000	53
1972.000	53
1973.000	52
1974.000	56
1975.000	51
1976.000	50
1977.000	50
1978.000	50
1979.000	51
1980.000	53
1981.000	52
1982.000	53
1983.000	51
1984.000	53
1985.000	52
1986.000	51
1987.000	51
1988.000	54
1989.000	50
1990.000	47
1991.000	51
1992.000	51
1993.000	51
1994.000	52
1995.000	55
1996.000	53
1997.000	51
1998.000	52
1999.000	50
2000.000	50
2001.000	54
2002.000	53
2003.000	52
2004.000	52
2005.000	50
2006.000	50
2007.000	51
2008.000	49
2009.000	51
2010.000	49
2011.000	58
2012.000	52
2013.000	48
2014.000	52
2015.000	48
2016.000	51
2017.000	51
2018.000	48
2019.000	47
2020.000	50
2021.000	51
2022.000	46
2023.000	49
2024.000	49
2025.000	44
2026.000	53
2027.000	45
2028.000	49
2029.000	47
2030.000	48
2031.000	48
2032.000	53
2033.000	48
2034.000	47
2035.000	44
2036.000	51
2037.000	45
2038.000	50
2039.000	46
2040.000	47
2041.000	49
2042.000	47
2043.000	47
2044.000	50
2045.000	47
2046.000	45
2047.000	47
2048.000	0
