Date:	23-Sep-20		Time:	11:32 PM		Version no:	0.00		Project name:	55		Sample name:	222		Section name:	section		Position	0.000000	mm	E0	0.000000	keV	E1	1.000000	keV/channel	sample surface	2.000000	cm	Tube anode:	Mo		Tube voltage:	30	kV	Tube current:	30	mA	gain	15		std. database			resultfile	result		matrix element	11		sample thickness	1.000000		air passage	0.560000	cm	comments	not in position		peaking_time	0.300000	m-sec	trigger_threshold	40.000000	V	mca_bin_width	2.000000	no:	number_mca_channels	2048.000000	no:	gap_time	2048.000000	m-sec	trigger_peaking_time	2048.000000	m-sec	GAINDAC	400		HIGHGAIN	400		TAURC	400		RCTAU	400		RCTAUFRAC	400		livetime	13.334824	seconds	runtime	15.000351	seconds	input_count_rate	47769.585089	cps	output_count_rate	42465.604889	cps	triggers	704307	seconds	events_in_run	618783	seconds	channel	content		1.000	0
2.000	0
3.000	0
4.000	0
5.000	0
6.000	0
7.000	0
8.000	0
9.000	0
10.000	0
11.000	0
12.000	0
13.000	0
14.000	0
15.000	0
16.000	0
17.000	0
18.000	0
19.000	0
20.000	0
21.000	0
22.000	0
23.000	0
24.000	0
25.000	0
26.000	0
27.000	0
28.000	0
29.000	0
30.000	0
31.000	0
32.000	0
33.000	0
34.000	0
35.000	0
36.000	0
37.000	0
38.000	0
39.000	0
40.000	0
41.000	0
42.000	0
43.000	0
44.000	0
45.000	0
46.000	1
47.000	0
48.000	1
49.000	1
50.000	1
51.000	1
52.000	3
53.000	3
54.000	4
55.000	4
56.000	7
57.000	10
58.000	14
59.000	17
60.000	24
61.000	27
62.000	30
63.000	28
64.000	29
65.000	28
66.000	26
67.000	27
68.000	25
69.000	27
70.000	24
71.000	25
72.000	24
73.000	25
74.000	26
75.000	25
76.000	25
77.000	25
78.000	23
79.000	25
80.000	26
81.000	26
82.000	24
83.000	24
84.000	24
85.000	25
86.000	25
87.000	21
88.000	26
89.000	26
90.000	24
91.000	21
92.000	22
93.000	24
94.000	22
95.000	21
96.000	24
97.000	20
98.000	22
99.000	21
100.000	20
101.000	21
102.000	21
103.000	21
104.000	19
105.000	20
106.000	19
107.000	21
108.000	19
109.000	18
110.000	19
111.000	19
112.000	16
113.000	19
114.000	19
115.000	17
116.000	18
117.000	17
118.000	18
119.000	17
120.000	16
121.000	17
122.000	16
123.000	16
124.000	17
125.000	16
126.000	15
127.000	15
128.000	16
129.000	14
130.000	14
131.000	15
132.000	15
133.000	15
134.000	15
135.000	12
136.000	15
137.000	15
138.000	14
139.000	15
140.000	17
141.000	21
142.000	23
143.000	24
144.000	26
145.000	26
146.000	25
147.000	28
148.000	28
149.000	27
150.000	22
151.000	21
152.000	21
153.000	23
154.000	22
155.000	19
156.000	18
157.000	18
158.000	18
159.000	18
160.000	13
161.000	18
162.000	18
163.000	19
164.000	26
165.000	35
166.000	41
167.000	61
168.000	70
169.000	83
170.000	86
171.000	92
172.000	86
173.000	71
174.000	64
175.000	55
176.000	41
177.000	34
178.000	28
179.000	23
180.000	22
181.000	21
182.000	23
183.000	22
184.000	25
185.000	29
186.000	33
187.000	40
188.000	44
189.000	53
190.000	55
191.000	55
192.000	53
193.000	49
194.000	46
195.000	37
196.000	31
197.000	24
198.000	22
199.000	16
200.000	16
201.000	12
202.000	12
203.000	11
204.000	12
205.000	10
206.000	12
207.000	11
208.000	11
209.000	11
210.000	12
211.000	10
212.000	11
213.000	10
214.000	10
215.000	13
216.000	12
217.000	12
218.000	14
219.000	14
220.000	16
221.000	15
222.000	19
223.000	17
224.000	20
225.000	18
226.000	18
227.000	15
228.000	15
229.000	14
230.000	12
231.000	12
232.000	10
233.000	10
234.000	10
235.000	11
236.000	10
237.000	9
238.000	9
239.000	9
240.000	8
241.000	9
242.000	9
243.000	10
244.000	10
245.000	13
246.000	13
247.000	16
248.000	18
249.000	24
250.000	34
251.000	46
252.000	59
253.000	67
254.000	87
255.000	94
256.000	107
257.000	108
258.000	102
259.000	106
260.000	85
261.000	74
262.000	61
263.000	43
264.000	33
265.000	27
266.000	23
267.000	21
268.000	18
269.000	18
270.000	20
271.000	20
272.000	22
273.000	23
274.000	23
275.000	23
276.000	23
277.000	23
278.000	23
279.000	23
280.000	20
281.000	26
282.000	27
283.000	27
284.000	35
285.000	43
286.000	52
287.000	61
288.000	61
289.000	68
290.000	69
291.000	71
292.000	64
293.000	61
294.000	49
295.000	36
296.000	31
297.000	26
298.000	17
299.000	16
300.000	15
301.000	13
302.000	10
303.000	12
304.000	9
305.000	12
306.000	13
307.000	14
308.000	18
309.000	17
310.000	21
311.000	25
312.000	30
313.000	47
314.000	59
315.000	78
316.000	102
317.000	150
318.000	215
319.000	282
320.000	360
321.000	440
322.000	502
323.000	560
324.000	589
325.000	599
326.000	579
327.000	529
328.000	449
329.000	364
330.000	285
331.000	207
332.000	154
333.000	107
334.000	73
335.000	51
336.000	34
337.000	25
338.000	22
339.000	21
340.000	21
341.000	27
342.000	31
343.000	40
344.000	49
345.000	66
346.000	94
347.000	114
348.000	162
349.000	219
350.000	300
351.000	433
352.000	634
353.000	870
354.000	1217
355.000	1588
356.000	2062
357.000	2588
358.000	3047
359.000	3497
360.000	3786
361.000	3929
362.000	3890
363.000	3656
364.000	3320
365.000	2861
366.000	2381
367.000	1876
368.000	1410
369.000	1012
370.000	700
371.000	457
372.000	289
373.000	175
374.000	118
375.000	77
376.000	54
377.000	42
378.000	35
379.000	45
380.000	50
381.000	62
382.000	77
383.000	112
384.000	143
385.000	192
386.000	256
387.000	318
388.000	392
389.000	464
390.000	536
391.000	584
392.000	618
393.000	621
394.000	596
395.000	555
396.000	500
397.000	427
398.000	351
399.000	278
400.000	216
401.000	160
402.000	115
403.000	79
404.000	56
405.000	39
406.000	27
407.000	22
408.000	18
409.000	16
410.000	14
411.000	13
412.000	11
413.000	10
414.000	12
415.000	11
416.000	14
417.000	10
418.000	10
419.000	9
420.000	11
421.000	12
422.000	15
423.000	16
424.000	16
425.000	20
426.000	21
427.000	32
428.000	42
429.000	57
430.000	85
431.000	111
432.000	156
433.000	204
434.000	265
435.000	342
436.000	417
437.000	481
438.000	563
439.000	621
440.000	662
441.000	675
442.000	668
443.000	631
444.000	558
445.000	504
446.000	417
447.000	357
448.000	285
449.000	223
450.000	189
451.000	150
452.000	128
453.000	113
454.000	100
455.000	96
456.000	90
457.000	82
458.000	77
459.000	71
460.000	58
461.000	54
462.000	45
463.000	44
464.000	38
465.000	41
466.000	37
467.000	41
468.000	44
469.000	49
470.000	53
471.000	53
472.000	65
473.000	72
474.000	81
475.000	87
476.000	100
477.000	110
478.000	128
479.000	133
480.000	143
481.000	158
482.000	155
483.000	150
484.000	147
485.000	143
486.000	129
487.000	113
488.000	101
489.000	85
490.000	75
491.000	62
492.000	52
493.000	46
494.000	39
495.000	38
496.000	37
497.000	30
498.000	33
499.000	34
500.000	32
501.000	37
502.000	35
503.000	38
504.000	35
505.000	39
506.000	38
507.000	40
508.000	38
509.000	45
510.000	43
511.000	41
512.000	47
513.000	44
514.000	47
515.000	50
516.000	49
517.000	60
518.000	52
519.000	56
520.000	58
521.000	61
522.000	70
523.000	77
524.000	74
525.000	81
526.000	85
527.000	90
528.000	91
529.000	91
530.000	89
531.000	87
532.000	83
533.000	76
534.000	74
535.000	66
536.000	61
537.000	58
538.000	54
539.000	52
540.000	47
541.000	43
542.000	43
543.000	42
544.000	43
545.000	43
546.000	43
547.000	41
548.000	45
549.000	42
550.000	41
551.000	40
552.000	43
553.000	43
554.000	43
555.000	46
556.000	43
557.000	44
558.000	45
559.000	49
560.000	57
561.000	62
562.000	73
563.000	85
564.000	103
565.000	129
566.000	156
567.000	197
568.000	249
569.000	308
570.000	363
571.000	433
572.000	480
573.000	547
574.000	590
575.000	616
576.000	630
577.000	644
578.000	602
579.000	562
580.000	514
581.000	455
582.000	382
583.000	323
584.000	269
585.000	217
586.000	173
587.000	142
588.000	116
589.000	95
590.000	89
591.000	73
592.000	72
593.000	63
594.000	67
595.000	74
596.000	69
597.000	66
598.000	77
599.000	78
600.000	83
601.000	87
602.000	96
603.000	102
604.000	119
605.000	148
606.000	179
607.000	237
608.000	322
609.000	458
610.000	653
611.000	946
612.000	1349
613.000	1886
614.000	2621
615.000	3531
616.000	4706
617.000	6120
618.000	7676
619.000	9377
620.000	11143
621.000	12816
622.000	14381
623.000	15643
624.000	16496
625.000	16934
626.000	16890
627.000	16154
628.000	15198
629.000	13725
630.000	12206
631.000	10443
632.000	8678
633.000	7025
634.000	5529
635.000	4243
636.000	3163
637.000	2299
638.000	1632
639.000	1150
640.000	822
641.000	558
642.000	382
643.000	273
644.000	211
645.000	161
646.000	136
647.000	117
648.000	108
649.000	104
650.000	100
651.000	91
652.000	94
653.000	95
654.000	93
655.000	98
656.000	98
657.000	94
658.000	98
659.000	110
660.000	98
661.000	103
662.000	110
663.000	109
664.000	118
665.000	121
666.000	127
667.000	137
668.000	143
669.000	149
670.000	158
671.000	187
672.000	209
673.000	247
674.000	294
675.000	356
676.000	434
677.000	533
678.000	656
679.000	821
680.000	1027
681.000	1226
682.000	1485
683.000	1716
684.000	1959
685.000	2203
686.000	2440
687.000	2596
688.000	2712
689.000	2728
690.000	2704
691.000	2621
692.000	2458
693.000	2271
694.000	2033
695.000	1726
696.000	1504
697.000	1214
698.000	1018
699.000	806
700.000	623
701.000	487
702.000	377
703.000	280
704.000	218
705.000	171
706.000	135
707.000	109
708.000	96
709.000	88
710.000	82
711.000	77
712.000	80
713.000	78
714.000	74
715.000	74
716.000	81
717.000	87
718.000	89
719.000	91
720.000	94
721.000	98
722.000	98
723.000	103
724.000	115
725.000	115
726.000	120
727.000	120
728.000	125
729.000	130
730.000	130
731.000	133
732.000	129
733.000	121
734.000	122
735.000	114
736.000	116
737.000	106
738.000	102
739.000	102
740.000	93
741.000	90
742.000	90
743.000	89
744.000	93
745.000	87
746.000	87
747.000	92
748.000	90
749.000	88
750.000	89
751.000	85
752.000	89
753.000	87
754.000	92
755.000	86
756.000	88
757.000	86
758.000	96
759.000	91
760.000	87
761.000	88
762.000	89
763.000	99
764.000	91
765.000	92
766.000	94
767.000	96
768.000	104
769.000	101
770.000	101
771.000	103
772.000	101
773.000	111
774.000	113
775.000	126
776.000	134
777.000	136
778.000	143
779.000	153
780.000	156
781.000	167
782.000	171
783.000	176
784.000	185
785.000	193
786.000	190
787.000	198
788.000	205
789.000	199
790.000	200
791.000	200
792.000	199
793.000	202
794.000	203
795.000	195
796.000	194
797.000	186
798.000	191
799.000	190
800.000	186
801.000	188
802.000	194
803.000	195
804.000	192
805.000	202
806.000	204
807.000	205
808.000	221
809.000	223
810.000	238
811.000	237
812.000	258
813.000	267
814.000	277
815.000	305
816.000	318
817.000	313
818.000	328
819.000	336
820.000	319
821.000	322
822.000	309
823.000	300
824.000	284
825.000	268
826.000	252
827.000	236
828.000	210
829.000	194
830.000	184
831.000	176
832.000	174
833.000	169
834.000	158
835.000	158
836.000	165
837.000	163
838.000	165
839.000	174
840.000	180
841.000	175
842.000	180
843.000	174
844.000	182
845.000	181
846.000	181
847.000	178
848.000	171
849.000	165
850.000	155
851.000	151
852.000	149
853.000	138
854.000	148
855.000	140
856.000	141
857.000	136
858.000	133
859.000	141
860.000	135
861.000	139
862.000	138
863.000	137
864.000	132
865.000	136
866.000	141
867.000	145
868.000	146
869.000	139
870.000	141
871.000	140
872.000	143
873.000	145
874.000	145
875.000	145
876.000	145
877.000	141
878.000	138
879.000	146
880.000	141
881.000	142
882.000	146
883.000	150
884.000	153
885.000	150
886.000	150
887.000	139
888.000	151
889.000	155
890.000	159
891.000	159
892.000	158
893.000	162
894.000	167
895.000	165
896.000	170
897.000	175
898.000	179
899.000	185
900.000	191
901.000	181
902.000	183
903.000	195
904.000	193
905.000	197
906.000	204
907.000	197
908.000	203
909.000	209
910.000	207
911.000	208
912.000	209
913.000	216
914.000	205
915.000	217
916.000	207
917.000	210
918.000	207
919.000	215
920.000	214
921.000	210
922.000	218
923.000	214
924.000	224
925.000	219
926.000	219
927.000	230
928.000	225
929.000	230
930.000	243
931.000	244
932.000	238
933.000	247
934.000	257
935.000	257
936.000	265
937.000	270
938.000	277
939.000	281
940.000	283
941.000	294
942.000	287
943.000	294
944.000	292
945.000	287
946.000	286
947.000	277
948.000	278
949.000	263
950.000	265
951.000	249
952.000	250
953.000	240
954.000	231
955.000	223
956.000	211
957.000	201
958.000	205
959.000	197
960.000	197
961.000	195
962.000	197
963.000	193
964.000	199
965.000	199
966.000	204
967.000	203
968.000	206
969.000	207
970.000	205
971.000	217
972.000	215
973.000	206
974.000	207
975.000	203
976.000	200
977.000	199
978.000	195
979.000	189
980.000	190
981.000	177
982.000	179
983.000	168
984.000	174
985.000	171
986.000	172
987.000	174
988.000	171
989.000	160
990.000	168
991.000	165
992.000	167
993.000	159
994.000	161
995.000	159
996.000	155
997.000	159
998.000	158
999.000	161
1000.000	153
1001.000	163
1002.000	157
1003.000	156
1004.000	158
1005.000	163
1006.000	151
1007.000	152
1008.000	164
1009.000	162
1010.000	161
1011.000	162
1012.000	159
1013.000	161
1014.000	155
1015.000	164
1016.000	157
1017.000	158
1018.000	157
1019.000	163
1020.000	163
1021.000	170
1022.000	162
1023.000	168
1024.000	167
1025.000	180
1026.000	166
1027.000	170
1028.000	169
1029.000	177
1030.000	168
1031.000	176
1032.000	175
1033.000	174
1034.000	171
1035.000	173
1036.000	170
1037.000	169
1038.000	173
1039.000	168
1040.000	174
1041.000	175
1042.000	167
1043.000	177
1044.000	178
1045.000	173
1046.000	170
1047.000	181
1048.000	174
1049.000	171
1050.000	177
1051.000	174
1052.000	173
1053.000	179
1054.000	181
1055.000	181
1056.000	186
1057.000	189
1058.000	185
1059.000	178
1060.000	181
1061.000	175
1062.000	186
1063.000	179
1064.000	179
1065.000	179
1066.000	184
1067.000	176
1068.000	182
1069.000	185
1070.000	186
1071.000	174
1072.000	186
1073.000	180
1074.000	183
1075.000	182
1076.000	178
1077.000	181
1078.000	176
1079.000	180
1080.000	183
1081.000	177
1082.000	178
1083.000	187
1084.000	183
1085.000	176
1086.000	190
1087.000	181
1088.000	182
1089.000	188
1090.000	185
1091.000	189
1092.000	185
1093.000	186
1094.000	187
1095.000	183
1096.000	188
1097.000	193
1098.000	196
1099.000	197
1100.000	201
1101.000	196
1102.000	193
1103.000	196
1104.000	195
1105.000	186
1106.000	191
1107.000	195
1108.000	190
1109.000	192
1110.000	187
1111.000	190
1112.000	189
1113.000	175
1114.000	184
1115.000	180
1116.000	184
1117.000	179
1118.000	178
1119.000	189
1120.000	183
1121.000	183
1122.000	184
1123.000	179
1124.000	177
1125.000	183
1126.000	177
1127.000	183
1128.000	181
1129.000	187
1130.000	185
1131.000	184
1132.000	184
1133.000	181
1134.000	184
1135.000	179
1136.000	177
1137.000	183
1138.000	176
1139.000	181
1140.000	183
1141.000	185
1142.000	189
1143.000	189
1144.000	180
1145.000	180
1146.000	184
1147.000	186
1148.000	184
1149.000	191
1150.000	195
1151.000	195
1152.000	192
1153.000	194
1154.000	201
1155.000	202
1156.000	201
1157.000	196
1158.000	209
1159.000	215
1160.000	203
1161.000	211
1162.000	210
1163.000	217
1164.000	209
1165.000	207
1166.000	207
1167.000	198
1168.000	209
1169.000	198
1170.000	195
1171.000	191
1172.000	197
1173.000	194
1174.000	191
1175.000	188
1176.000	189
1177.000	187
1178.000	179
1179.000	173
1180.000	172
1181.000	181
1182.000	181
1183.000	175
1184.000	184
1185.000	173
1186.000	181
1187.000	184
1188.000	176
1189.000	176
1190.000	185
1191.000	185
1192.000	175
1193.000	178
1194.000	185
1195.000	179
1196.000	185
1197.000	185
1198.000	178
1199.000	182
1200.000	178
1201.000	184
1202.000	184
1203.000	180
1204.000	188
1205.000	182
1206.000	187
1207.000	181
1208.000	188
1209.000	176
1210.000	180
1211.000	178
1212.000	186
1213.000	182
1214.000	193
1215.000	190
1216.000	188
1217.000	184
1218.000	179
1219.000	192
1220.000	182
1221.000	186
1222.000	185
1223.000	185
1224.000	185
1225.000	184
1226.000	192
1227.000	196
1228.000	189
1229.000	188
1230.000	193
1231.000	193
1232.000	196
1233.000	194
1234.000	191
1235.000	193
1236.000	191
1237.000	195
1238.000	192
1239.000	188
1240.000	197
1241.000	195
1242.000	198
1243.000	195
1244.000	197
1245.000	198
1246.000	203
1247.000	209
1248.000	199
1249.000	197
1250.000	204
1251.000	203
1252.000	198
1253.000	195
1254.000	200
1255.000	199
1256.000	194
1257.000	196
1258.000	194
1259.000	200
1260.000	195
1261.000	195
1262.000	198
1263.000	196
1264.000	194
1265.000	194
1266.000	196
1267.000	199
1268.000	198
1269.000	192
1270.000	190
1271.000	194
1272.000	193
1273.000	196
1274.000	202
1275.000	191
1276.000	198
1277.000	185
1278.000	187
1279.000	200
1280.000	194
1281.000	199
1282.000	192
1283.000	191
1284.000	191
1285.000	199
1286.000	204
1287.000	200
1288.000	202
1289.000	208
1290.000	199
1291.000	209
1292.000	215
1293.000	225
1294.000	221
1295.000	230
1296.000	241
1297.000	234
1298.000	249
1299.000	252
1300.000	255
1301.000	244
1302.000	268
1303.000	262
1304.000	254
1305.000	261
1306.000	253
1307.000	262
1308.000	254
1309.000	262
1310.000	248
1311.000	251
1312.000	242
1313.000	235
1314.000	239
1315.000	221
1316.000	231
1317.000	217
1318.000	225
1319.000	221
1320.000	203
1321.000	206
1322.000	208
1323.000	201
1324.000	197
1325.000	201
1326.000	203
1327.000	200
1328.000	201
1329.000	198
1330.000	187
1331.000	195
1332.000	187
1333.000	198
1334.000	187
1335.000	200
1336.000	195
1337.000	204
1338.000	193
1339.000	193
1340.000	193
1341.000	203
1342.000	203
1343.000	199
1344.000	195
1345.000	194
1346.000	193
1347.000	190
1348.000	199
1349.000	195
1350.000	194
1351.000	198
1352.000	204
1353.000	195
1354.000	205
1355.000	207
1356.000	203
1357.000	208
1358.000	217
1359.000	215
1360.000	229
1361.000	234
1362.000	242
1363.000	252
1364.000	263
1365.000	275
1366.000	295
1367.000	307
1368.000	323
1369.000	351
1370.000	365
1371.000	381
1372.000	416
1373.000	440
1374.000	456
1375.000	470
1376.000	487
1377.000	502
1378.000	502
1379.000	502
1380.000	518
1381.000	518
1382.000	495
1383.000	491
1384.000	461
1385.000	464
1386.000	433
1387.000	427
1388.000	401
1389.000	386
1390.000	356
1391.000	345
1392.000	314
1393.000	294
1394.000	271
1395.000	248
1396.000	239
1397.000	241
1398.000	222
1399.000	219
1400.000	213
1401.000	201
1402.000	205
1403.000	208
1404.000	200
1405.000	198
1406.000	192
1407.000	204
1408.000	190
1409.000	191
1410.000	200
1411.000	200
1412.000	194
1413.000	184
1414.000	201
1415.000	187
1416.000	193
1417.000	187
1418.000	194
1419.000	195
1420.000	194
1421.000	191
1422.000	197
1423.000	194
1424.000	193
1425.000	197
1426.000	198
1427.000	195
1428.000	198
1429.000	191
1430.000	194
1431.000	196
1432.000	193
1433.000	198
1434.000	196
1435.000	199
1436.000	197
1437.000	205
1438.000	199
1439.000	201
1440.000	207
1441.000	198
1442.000	200
1443.000	210
1444.000	203
1445.000	211
1446.000	208
1447.000	199
1448.000	215
1449.000	207
1450.000	214
1451.000	212
1452.000	218
1453.000	221
1454.000	221
1455.000	216
1456.000	221
1457.000	223
1458.000	222
1459.000	222
1460.000	222
1461.000	222
1462.000	225
1463.000	223
1464.000	216
1465.000	219
1466.000	213
1467.000	214
1468.000	211
1469.000	204
1470.000	203
1471.000	201
1472.000	209
1473.000	205
1474.000	198
1475.000	207
1476.000	208
1477.000	203
1478.000	204
1479.000	196
1480.000	204
1481.000	203
1482.000	193
1483.000	204
1484.000	202
1485.000	197
1486.000	200
1487.000	203
1488.000	202
1489.000	208
1490.000	197
1491.000	201
1492.000	198
1493.000	205
1494.000	205
1495.000	201
1496.000	204
1497.000	197
1498.000	207
1499.000	202
1500.000	200
1501.000	204
1502.000	204
1503.000	205
1504.000	207
1505.000	211
1506.000	210
1507.000	200
1508.000	211
1509.000	215
1510.000	214
1511.000	209
1512.000	208
1513.000	212
1514.000	212
1515.000	219
1516.000	227
1517.000	223
1518.000	221
1519.000	222
1520.000	233
1521.000	232
1522.000	234
1523.000	242
1524.000	247
1525.000	250
1526.000	245
1527.000	265
1528.000	261
1529.000	266
1530.000	270
1531.000	281
1532.000	289
1533.000	301
1534.000	305
1535.000	307
1536.000	323
1537.000	306
1538.000	317
1539.000	322
1540.000	318
1541.000	323
1542.000	330
1543.000	331
1544.000	331
1545.000	323
1546.000	315
1547.000	322
1548.000	318
1549.000	309
1550.000	300
1551.000	300
1552.000	299
1553.000	293
1554.000	286
1555.000	299
1556.000	293
1557.000	298
1558.000	290
1559.000	297
1560.000	292
1561.000	295
1562.000	306
1563.000	299
1564.000	304
1565.000	310
1566.000	316
1567.000	327
1568.000	332
1569.000	348
1570.000	337
1571.000	350
1572.000	359
1573.000	367
1574.000	367
1575.000	379
1576.000	396
1577.000	407
1578.000	418
1579.000	428
1580.000	443
1581.000	448
1582.000	462
1583.000	485
1584.000	494
1585.000	499
1586.000	508
1587.000	525
1588.000	536
1589.000	571
1590.000	566
1591.000	579
1592.000	593
1593.000	613
1594.000	634
1595.000	643
1596.000	653
1597.000	659
1598.000	686
1599.000	690
1600.000	687
1601.000	703
1602.000	703
1603.000	722
1604.000	714
1605.000	724
1606.000	727
1607.000	731
1608.000	724
1609.000	722
1610.000	717
1611.000	719
1612.000	736
1613.000	726
1614.000	706
1615.000	710
1616.000	686
1617.000	672
1618.000	673
1619.000	668
1620.000	649
1621.000	645
1622.000	629
1623.000	616
1624.000	600
1625.000	606
1626.000	577
1627.000	546
1628.000	545
1629.000	520
1630.000	517
1631.000	502
1632.000	481
1633.000	477
1634.000	455
1635.000	454
1636.000	432
1637.000	430
1638.000	402
1639.000	393
1640.000	387
1641.000	378
1642.000	367
1643.000	355
1644.000	349
1645.000	332
1646.000	322
1647.000	311
1648.000	301
1649.000	300
1650.000	287
1651.000	282
1652.000	273
1653.000	275
1654.000	253
1655.000	248
1656.000	256
1657.000	259
1658.000	252
1659.000	241
1660.000	243
1661.000	226
1662.000	231
1663.000	218
1664.000	227
1665.000	219
1666.000	219
1667.000	212
1668.000	219
1669.000	204
1670.000	207
1671.000	206
1672.000	213
1673.000	214
1674.000	216
1675.000	218
1676.000	220
1677.000	233
1678.000	230
1679.000	233
1680.000	244
1681.000	252
1682.000	264
1683.000	283
1684.000	294
1685.000	304
1686.000	317
1687.000	344
1688.000	354
1689.000	380
1690.000	402
1691.000	438
1692.000	441
1693.000	467
1694.000	492
1695.000	515
1696.000	531
1697.000	541
1698.000	554
1699.000	556
1700.000	568
1701.000	574
1702.000	552
1703.000	558
1704.000	566
1705.000	537
1706.000	531
1707.000	535
1708.000	497
1709.000	472
1710.000	454
1711.000	431
1712.000	408
1713.000	376
1714.000	360
1715.000	341
1716.000	313
1717.000	302
1718.000	266
1719.000	261
1720.000	247
1721.000	228
1722.000	211
1723.000	206
1724.000	196
1725.000	195
1726.000	181
1727.000	178
1728.000	178
1729.000	180
1730.000	174
1731.000	175
1732.000	171
1733.000	166
1734.000	161
1735.000	166
1736.000	170
1737.000	169
1738.000	167
1739.000	164
1740.000	167
1741.000	172
1742.000	169
1743.000	167
1744.000	168
1745.000	170
1746.000	167
1747.000	164
1748.000	170
1749.000	167
1750.000	166
1751.000	168
1752.000	166
1753.000	167
1754.000	168
1755.000	179
1756.000	175
1757.000	176
1758.000	184
1759.000	179
1760.000	186
1761.000	176
1762.000	186
1763.000	183
1764.000	184
1765.000	180
1766.000	186
1767.000	189
1768.000	187
1769.000	189
1770.000	195
1771.000	198
1772.000	203
1773.000	201
1774.000	196
1775.000	208
1776.000	209
1777.000	211
1778.000	216
1779.000	215
1780.000	212
1781.000	224
1782.000	223
1783.000	219
1784.000	218
1785.000	224
1786.000	222
1787.000	224
1788.000	220
1789.000	234
1790.000	228
1791.000	224
1792.000	235
1793.000	230
1794.000	226
1795.000	233
1796.000	231
1797.000	232
1798.000	228
1799.000	226
1800.000	229
1801.000	219
1802.000	222
1803.000	224
1804.000	224
1805.000	216
1806.000	220
1807.000	208
1808.000	217
1809.000	208
1810.000	197
1811.000	204
1812.000	199
1813.000	198
1814.000	193
1815.000	194
1816.000	194
1817.000	193
1818.000	181
1819.000	177
1820.000	176
1821.000	173
1822.000	172
1823.000	163
1824.000	171
1825.000	166
1826.000	160
1827.000	165
1828.000	164
1829.000	146
1830.000	147
1831.000	147
1832.000	144
1833.000	149
1834.000	141
1835.000	143
1836.000	138
1837.000	135
1838.000	139
1839.000	134
1840.000	125
1841.000	127
1842.000	124
1843.000	120
1844.000	127
1845.000	116
1846.000	119
1847.000	120
1848.000	113
1849.000	115
1850.000	113
1851.000	113
1852.000	112
1853.000	104
1854.000	106
1855.000	110
1856.000	107
1857.000	104
1858.000	104
1859.000	103
1860.000	103
1861.000	101
1862.000	97
1863.000	96
1864.000	99
1865.000	103
1866.000	94
1867.000	94
1868.000	89
1869.000	96
1870.000	96
1871.000	93
1872.000	90
1873.000	87
1874.000	89
1875.000	88
1876.000	79
1877.000	84
1878.000	86
1879.000	90
1880.000	83
1881.000	87
1882.000	84
1883.000	81
1884.000	85
1885.000	85
1886.000	86
1887.000	83
1888.000	84
1889.000	84
1890.000	89
1891.000	86
1892.000	88
1893.000	90
1894.000	95
1895.000	92
1896.000	95
1897.000	98
1898.000	99
1899.000	109
1900.000	108
1901.000	112
1902.000	112
1903.000	122
1904.000	127
1905.000	125
1906.000	123
1907.000	131
1908.000	128
1909.000	131
1910.000	130
1911.000	139
1912.000	133
1913.000	130
1914.000	131
1915.000	129
1916.000	130
1917.000	120
1918.000	122
1919.000	121
1920.000	116
1921.000	107
1922.000	103
1923.000	101
1924.000	97
1925.000	91
1926.000	86
1927.000	85
1928.000	91
1929.000	85
1930.000	83
1931.000	85
1932.000	81
1933.000	81
1934.000	76
1935.000	80
1936.000	80
1937.000	80
1938.000	80
1939.000	76
1940.000	79
1941.000	76
1942.000	76
1943.000	72
1944.000	80
1945.000	75
1946.000	76
1947.000	77
1948.000	77
1949.000	73
1950.000	73
1951.000	74
1952.000	72
1953.000	70
1954.000	69
1955.000	72
1956.000	63
1957.000	68
1958.000	64
1959.000	67
1960.000	64
1961.000	62
1962.000	58
1963.000	64
1964.000	63
1965.000	63
1966.000	60
1967.000	64
1968.000	56
1969.000	63
1970.000	62
1971.000	60
1972.000	58
1973.000	54
1974.000	59
1975.000	59
1976.000	58
1977.000	60
1978.000	59
1979.000	66
1980.000	60
1981.000	58
1982.000	59
1983.000	61
1984.000	63
1985.000	57
1986.000	62
1987.000	61
1988.000	57
1989.000	55
1990.000	60
1991.000	58
1992.000	57
1993.000	56
1994.000	54
1995.000	57
1996.000	59
1997.000	56
1998.000	58
1999.000	56
2000.000	58
2001.000	56
2002.000	56
2003.000	60
2004.000	56
2005.000	61
2006.000	57
2007.000	59
2008.000	51
2009.000	61
2010.000	59
2011.000	56
2012.000	58
2013.000	57
2014.000	54
2015.000	60
2016.000	60
2017.000	54
2018.000	59
2019.000	58
2020.000	55
2021.000	57
2022.000	56
2023.000	54
2024.000	49
2025.000	53
2026.000	59
2027.000	55
2028.000	55
2029.000	55
2030.000	54
2031.000	56
2032.000	54
2033.000	60
2034.000	56
2035.000	53
2036.000	55
2037.000	53
2038.000	54
2039.000	56
2040.000	56
2041.000	54
2042.000	55
2043.000	54
2044.000	56
2045.000	53
2046.000	53
2047.000	57
2048.000	0
