Date:	17-Sep-20		Time:	11:47 PM		Version no:	0.00		Project name:	55		Sample name:	222		Section name:	section		Position	0.000000	mm	E0	0.000000	keV	E1	1.000000	keV/channel	sample surface	2.000000	cm	Tube anode:	Mo		Tube voltage:	30	kV	Tube current:	30	mA	gain	15		std. database			resultfile	result		matrix element	11		sample thickness	1.000000		air passage	0.560000	cm	comments	not in position		peaking_time	0.300000	m-sec	trigger_threshold	40.000000	V	mca_bin_width	2.000000	no:	number_mca_channels	2048.000000	no:	gap_time	2048.000000	m-sec	trigger_peaking_time	2048.000000	m-sec	GAINDAC	400		HIGHGAIN	400		TAURC	400		RCTAU	400		RCTAUFRAC	400		livetime	13.014294	seconds	runtime	15.000232	seconds	input_count_rate	80431.410221	cps	output_count_rate	69782.785033	cps	triggers	1173264	seconds	events_in_run	1020480	seconds	channel	content		1.000	0
2.000	0
3.000	0
4.000	0
5.000	0
6.000	0
7.000	0
8.000	0
9.000	0
10.000	0
11.000	0
12.000	0
13.000	0
14.000	0
15.000	0
16.000	0
17.000	0
18.000	0
19.000	0
20.000	0
21.000	0
22.000	0
23.000	0
24.000	0
25.000	0
26.000	0
27.000	0
28.000	0
29.000	0
30.000	0
31.000	1
32.000	0
33.000	0
34.000	1
35.000	0
36.000	0
37.000	0
38.000	0
39.000	0
40.000	1
41.000	1
42.000	0
43.000	0
44.000	0
45.000	1
46.000	0
47.000	1
48.000	0
49.000	1
50.000	1
51.000	2
52.000	2
53.000	2
54.000	3
55.000	5
56.000	5
57.000	8
58.000	12
59.000	15
60.000	19
61.000	26
62.000	24
63.000	27
64.000	27
65.000	28
66.000	27
67.000	26
68.000	24
69.000	21
70.000	24
71.000	22
72.000	23
73.000	20
74.000	21
75.000	20
76.000	21
77.000	21
78.000	20
79.000	19
80.000	21
81.000	22
82.000	20
83.000	20
84.000	24
85.000	21
86.000	20
87.000	22
88.000	22
89.000	18
90.000	21
91.000	20
92.000	21
93.000	17
94.000	17
95.000	18
96.000	18
97.000	21
98.000	20
99.000	18
100.000	19
101.000	17
102.000	15
103.000	19
104.000	16
105.000	18
106.000	16
107.000	17
108.000	16
109.000	18
110.000	15
111.000	17
112.000	16
113.000	15
114.000	15
115.000	16
116.000	15
117.000	15
118.000	16
119.000	13
120.000	17
121.000	14
122.000	13
123.000	14
124.000	14
125.000	12
126.000	13
127.000	14
128.000	13
129.000	12
130.000	15
131.000	13
132.000	14
133.000	12
134.000	13
135.000	13
136.000	14
137.000	13
138.000	15
139.000	15
140.000	18
141.000	20
142.000	25
143.000	25
144.000	29
145.000	34
146.000	32
147.000	31
148.000	32
149.000	28
150.000	25
151.000	24
152.000	25
153.000	24
154.000	22
155.000	22
156.000	19
157.000	18
158.000	15
159.000	17
160.000	15
161.000	18
162.000	17
163.000	26
164.000	37
165.000	49
166.000	71
167.000	90
168.000	113
169.000	133
170.000	146
171.000	147
172.000	141
173.000	120
174.000	99
175.000	83
176.000	65
177.000	47
178.000	42
179.000	33
180.000	30
181.000	28
182.000	29
183.000	33
184.000	33
185.000	41
186.000	51
187.000	60
188.000	74
189.000	85
190.000	91
191.000	93
192.000	96
193.000	89
194.000	73
195.000	60
196.000	50
197.000	33
198.000	27
199.000	19
200.000	18
201.000	15
202.000	15
203.000	13
204.000	11
205.000	13
206.000	12
207.000	12
208.000	12
209.000	10
210.000	14
211.000	12
212.000	14
213.000	12
214.000	12
215.000	14
216.000	15
217.000	16
218.000	17
219.000	21
220.000	20
221.000	23
222.000	21
223.000	25
224.000	23
225.000	21
226.000	20
227.000	18
228.000	16
229.000	17
230.000	14
231.000	13
232.000	11
233.000	9
234.000	10
235.000	10
236.000	11
237.000	10
238.000	9
239.000	10
240.000	11
241.000	11
242.000	11
243.000	9
244.000	10
245.000	11
246.000	11
247.000	12
248.000	15
249.000	17
250.000	23
251.000	29
252.000	37
253.000	45
254.000	55
255.000	61
256.000	68
257.000	71
258.000	64
259.000	59
260.000	55
261.000	48
262.000	42
263.000	34
264.000	28
265.000	24
266.000	25
267.000	24
268.000	21
269.000	23
270.000	24
271.000	23
272.000	26
273.000	28
274.000	25
275.000	22
276.000	25
277.000	19
278.000	19
279.000	20
280.000	22
281.000	19
282.000	21
283.000	26
284.000	30
285.000	36
286.000	45
287.000	48
288.000	55
289.000	59
290.000	60
291.000	56
292.000	57
293.000	43
294.000	41
295.000	36
296.000	29
297.000	24
298.000	19
299.000	16
300.000	14
301.000	13
302.000	12
303.000	15
304.000	14
305.000	15
306.000	15
307.000	17
308.000	17
309.000	25
310.000	26
311.000	31
312.000	37
313.000	47
314.000	62
315.000	85
316.000	120
317.000	165
318.000	224
319.000	297
320.000	375
321.000	452
322.000	536
323.000	589
324.000	625
325.000	634
326.000	595
327.000	542
328.000	461
329.000	385
330.000	300
331.000	236
332.000	162
333.000	121
334.000	81
335.000	53
336.000	36
337.000	34
338.000	26
339.000	26
340.000	28
341.000	33
342.000	39
343.000	48
344.000	64
345.000	84
346.000	119
347.000	163
348.000	232
349.000	330
350.000	476
351.000	712
352.000	1052
353.000	1515
354.000	2112
355.000	2845
356.000	3705
357.000	4584
358.000	5447
359.000	6237
360.000	6861
361.000	7097
362.000	7060
363.000	6668
364.000	5998
365.000	5205
366.000	4256
367.000	3365
368.000	2521
369.000	1819
370.000	1253
371.000	822
372.000	517
373.000	327
374.000	203
375.000	129
376.000	89
377.000	70
378.000	65
379.000	68
380.000	81
381.000	104
382.000	132
383.000	178
384.000	235
385.000	319
386.000	419
387.000	530
388.000	645
389.000	757
390.000	876
391.000	976
392.000	1018
393.000	1041
394.000	1002
395.000	959
396.000	853
397.000	692
398.000	579
399.000	455
400.000	346
401.000	262
402.000	171
403.000	119
404.000	84
405.000	55
406.000	35
407.000	25
408.000	17
409.000	14
410.000	13
411.000	10
412.000	10
413.000	11
414.000	9
415.000	12
416.000	11
417.000	11
418.000	12
419.000	11
420.000	12
421.000	13
422.000	15
423.000	16
424.000	20
425.000	25
426.000	32
427.000	45
428.000	72
429.000	100
430.000	149
431.000	216
432.000	311
433.000	418
434.000	564
435.000	731
436.000	914
437.000	1108
438.000	1248
439.000	1371
440.000	1467
441.000	1480
442.000	1471
443.000	1403
444.000	1285
445.000	1097
446.000	940
447.000	764
448.000	604
449.000	478
450.000	353
451.000	280
452.000	214
453.000	169
454.000	144
455.000	123
456.000	113
457.000	96
458.000	89
459.000	75
460.000	64
461.000	58
462.000	49
463.000	44
464.000	38
465.000	38
466.000	40
467.000	40
468.000	47
469.000	53
470.000	60
471.000	69
472.000	81
473.000	101
474.000	115
475.000	129
476.000	163
477.000	190
478.000	209
479.000	240
480.000	266
481.000	271
482.000	284
483.000	289
484.000	269
485.000	267
486.000	234
487.000	199
488.000	168
489.000	139
490.000	121
491.000	93
492.000	71
493.000	56
494.000	49
495.000	40
496.000	32
497.000	29
498.000	28
499.000	27
500.000	27
501.000	25
502.000	30
503.000	28
504.000	28
505.000	31
506.000	32
507.000	33
508.000	32
509.000	34
510.000	34
511.000	36
512.000	40
513.000	39
514.000	43
515.000	43
516.000	44
517.000	47
518.000	48
519.000	54
520.000	56
521.000	58
522.000	70
523.000	74
524.000	82
525.000	87
526.000	92
527.000	103
528.000	96
529.000	100
530.000	99
531.000	101
532.000	88
533.000	86
534.000	78
535.000	72
536.000	63
537.000	52
538.000	50
539.000	42
540.000	40
541.000	38
542.000	36
543.000	32
544.000	35
545.000	33
546.000	32
547.000	34
548.000	32
549.000	33
550.000	32
551.000	34
552.000	30
553.000	36
554.000	33
555.000	31
556.000	33
557.000	34
558.000	35
559.000	38
560.000	44
561.000	48
562.000	53
563.000	65
564.000	82
565.000	101
566.000	128
567.000	158
568.000	195
569.000	244
570.000	296
571.000	339
572.000	400
573.000	434
574.000	485
575.000	507
576.000	518
577.000	506
578.000	491
579.000	464
580.000	430
581.000	362
582.000	317
583.000	272
584.000	223
585.000	181
586.000	150
587.000	125
588.000	102
589.000	87
590.000	82
591.000	70
592.000	65
593.000	60
594.000	61
595.000	61
596.000	63
597.000	63
598.000	70
599.000	70
600.000	77
601.000	81
602.000	94
603.000	100
604.000	123
605.000	146
606.000	187
607.000	253
608.000	343
609.000	503
610.000	702
611.000	1045
612.000	1504
613.000	2124
614.000	2965
615.000	4034
616.000	5327
617.000	6912
618.000	8744
619.000	10666
620.000	12675
621.000	14595
622.000	16346
623.000	17796
624.000	18867
625.000	19274
626.000	19252
627.000	18501
628.000	17286
629.000	15740
630.000	13932
631.000	11910
632.000	9897
633.000	8007
634.000	6306
635.000	4784
636.000	3543
637.000	2580
638.000	1849
639.000	1276
640.000	883
641.000	592
642.000	413
643.000	282
644.000	202
645.000	152
646.000	125
647.000	108
648.000	92
649.000	87
650.000	82
651.000	82
652.000	82
653.000	82
654.000	81
655.000	81
656.000	84
657.000	87
658.000	84
659.000	92
660.000	87
661.000	91
662.000	95
663.000	106
664.000	105
665.000	110
666.000	110
667.000	127
668.000	132
669.000	142
670.000	155
671.000	180
672.000	206
673.000	238
674.000	297
675.000	369
676.000	462
677.000	566
678.000	722
679.000	905
680.000	1112
681.000	1369
682.000	1635
683.000	1902
684.000	2199
685.000	2500
686.000	2720
687.000	2882
688.000	3013
689.000	3079
690.000	3040
691.000	2969
692.000	2777
693.000	2532
694.000	2273
695.000	1968
696.000	1672
697.000	1357
698.000	1106
699.000	891
700.000	683
701.000	512
702.000	400
703.000	295
704.000	218
705.000	157
706.000	119
707.000	99
708.000	80
709.000	66
710.000	62
711.000	61
712.000	61
713.000	55
714.000	57
715.000	57
716.000	64
717.000	59
718.000	65
719.000	66
720.000	70
721.000	76
722.000	78
723.000	77
724.000	83
725.000	86
726.000	94
727.000	98
728.000	95
729.000	102
730.000	96
731.000	93
732.000	93
733.000	91
734.000	89
735.000	84
736.000	76
737.000	80
738.000	76
739.000	72
740.000	69
741.000	66
742.000	72
743.000	64
744.000	68
745.000	61
746.000	61
747.000	59
748.000	58
749.000	64
750.000	64
751.000	63
752.000	66
753.000	63
754.000	62
755.000	64
756.000	65
757.000	65
758.000	64
759.000	68
760.000	66
761.000	62
762.000	72
763.000	65
764.000	70
765.000	71
766.000	68
767.000	77
768.000	72
769.000	73
770.000	76
771.000	77
772.000	80
773.000	81
774.000	86
775.000	80
776.000	90
777.000	88
778.000	93
779.000	93
780.000	97
781.000	102
782.000	115
783.000	113
784.000	116
785.000	119
786.000	118
787.000	125
788.000	124
789.000	127
790.000	129
791.000	122
792.000	133
793.000	128
794.000	131
795.000	131
796.000	132
797.000	129
798.000	135
799.000	134
800.000	130
801.000	131
802.000	136
803.000	134
804.000	138
805.000	138
806.000	150
807.000	153
808.000	156
809.000	161
810.000	178
811.000	190
812.000	200
813.000	205
814.000	223
815.000	237
816.000	244
817.000	259
818.000	258
819.000	264
820.000	259
821.000	273
822.000	250
823.000	241
824.000	236
825.000	216
826.000	198
827.000	175
828.000	165
829.000	171
830.000	149
831.000	146
832.000	136
833.000	138
834.000	129
835.000	134
836.000	137
837.000	142
838.000	148
839.000	149
840.000	145
841.000	153
842.000	158
843.000	153
844.000	154
845.000	153
846.000	145
847.000	145
848.000	147
849.000	139
850.000	127
851.000	123
852.000	128
853.000	122
854.000	116
855.000	114
856.000	111
857.000	107
858.000	107
859.000	104
860.000	102
861.000	100
862.000	97
863.000	105
864.000	107
865.000	103
866.000	104
867.000	105
868.000	108
869.000	111
870.000	110
871.000	106
872.000	111
873.000	97
874.000	113
875.000	105
876.000	107
877.000	109
878.000	110
879.000	114
880.000	108
881.000	110
882.000	114
883.000	112
884.000	112
885.000	108
886.000	112
887.000	114
888.000	114
889.000	108
890.000	115
891.000	114
892.000	122
893.000	126
894.000	121
895.000	131
896.000	131
897.000	138
898.000	136
899.000	137
900.000	142
901.000	144
902.000	137
903.000	144
904.000	149
905.000	145
906.000	158
907.000	158
908.000	155
909.000	155
910.000	149
911.000	158
912.000	155
913.000	156
914.000	155
915.000	161
916.000	155
917.000	155
918.000	161
919.000	161
920.000	154
921.000	158
922.000	161
923.000	165
924.000	160
925.000	170
926.000	171
927.000	165
928.000	169
929.000	174
930.000	182
931.000	188
932.000	200
933.000	186
934.000	202
935.000	201
936.000	210
937.000	207
938.000	222
939.000	220
940.000	229
941.000	238
942.000	233
943.000	245
944.000	239
945.000	242
946.000	242
947.000	222
948.000	216
949.000	208
950.000	205
951.000	197
952.000	194
953.000	186
954.000	181
955.000	168
956.000	166
957.000	159
958.000	159
959.000	151
960.000	157
961.000	161
962.000	151
963.000	156
964.000	156
965.000	167
966.000	170
967.000	166
968.000	160
969.000	171
970.000	171
971.000	174
972.000	167
973.000	176
974.000	169
975.000	161
976.000	164
977.000	165
978.000	161
979.000	159
980.000	162
981.000	150
982.000	153
983.000	146
984.000	144
985.000	145
986.000	138
987.000	130
988.000	138
989.000	140
990.000	137
991.000	135
992.000	134
993.000	136
994.000	127
995.000	134
996.000	121
997.000	125
998.000	129
999.000	128
1000.000	124
1001.000	128
1002.000	122
1003.000	127
1004.000	116
1005.000	125
1006.000	126
1007.000	128
1008.000	124
1009.000	125
1010.000	122
1011.000	126
1012.000	121
1013.000	119
1014.000	124
1015.000	129
1016.000	124
1017.000	120
1018.000	122
1019.000	124
1020.000	125
1021.000	127
1022.000	130
1023.000	129
1024.000	129
1025.000	129
1026.000	126
1027.000	132
1028.000	136
1029.000	130
1030.000	128
1031.000	131
1032.000	132
1033.000	132
1034.000	129
1035.000	123
1036.000	137
1037.000	133
1038.000	134
1039.000	131
1040.000	130
1041.000	125
1042.000	131
1043.000	135
1044.000	128
1045.000	126
1046.000	135
1047.000	137
1048.000	136
1049.000	130
1050.000	140
1051.000	138
1052.000	136
1053.000	136
1054.000	139
1055.000	138
1056.000	144
1057.000	136
1058.000	136
1059.000	142
1060.000	141
1061.000	142
1062.000	140
1063.000	148
1064.000	149
1065.000	141
1066.000	141
1067.000	141
1068.000	138
1069.000	137
1070.000	140
1071.000	136
1072.000	143
1073.000	145
1074.000	146
1075.000	139
1076.000	150
1077.000	135
1078.000	141
1079.000	138
1080.000	141
1081.000	140
1082.000	140
1083.000	141
1084.000	137
1085.000	138
1086.000	140
1087.000	142
1088.000	136
1089.000	137
1090.000	142
1091.000	149
1092.000	148
1093.000	152
1094.000	142
1095.000	151
1096.000	150
1097.000	151
1098.000	162
1099.000	153
1100.000	156
1101.000	153
1102.000	159
1103.000	158
1104.000	155
1105.000	157
1106.000	155
1107.000	151
1108.000	153
1109.000	155
1110.000	151
1111.000	148
1112.000	151
1113.000	144
1114.000	141
1115.000	147
1116.000	138
1117.000	143
1118.000	143
1119.000	138
1120.000	140
1121.000	145
1122.000	143
1123.000	146
1124.000	144
1125.000	142
1126.000	140
1127.000	139
1128.000	144
1129.000	151
1130.000	149
1131.000	142
1132.000	145
1133.000	140
1134.000	139
1135.000	143
1136.000	148
1137.000	152
1138.000	151
1139.000	146
1140.000	140
1141.000	145
1142.000	144
1143.000	141
1144.000	141
1145.000	141
1146.000	143
1147.000	139
1148.000	143
1149.000	145
1150.000	146
1151.000	150
1152.000	148
1153.000	146
1154.000	153
1155.000	154
1156.000	146
1157.000	147
1158.000	154
1159.000	156
1160.000	156
1161.000	151
1162.000	152
1163.000	155
1164.000	155
1165.000	157
1166.000	149
1167.000	155
1168.000	149
1169.000	150
1170.000	152
1171.000	149
1172.000	153
1173.000	147
1174.000	144
1175.000	146
1176.000	144
1177.000	142
1178.000	149
1179.000	148
1180.000	152
1181.000	147
1182.000	142
1183.000	139
1184.000	148
1185.000	143
1186.000	147
1187.000	139
1188.000	139
1189.000	144
1190.000	140
1191.000	140
1192.000	141
1193.000	147
1194.000	151
1195.000	140
1196.000	146
1197.000	142
1198.000	145
1199.000	136
1200.000	142
1201.000	144
1202.000	148
1203.000	146
1204.000	145
1205.000	153
1206.000	140
1207.000	141
1208.000	144
1209.000	138
1210.000	142
1211.000	144
1212.000	148
1213.000	147
1214.000	147
1215.000	144
1216.000	144
1217.000	147
1218.000	146
1219.000	143
1220.000	145
1221.000	148
1222.000	150
1223.000	142
1224.000	148
1225.000	146
1226.000	149
1227.000	147
1228.000	145
1229.000	153
1230.000	149
1231.000	148
1232.000	154
1233.000	155
1234.000	149
1235.000	153
1236.000	155
1237.000	154
1238.000	154
1239.000	154
1240.000	158
1241.000	153
1242.000	149
1243.000	168
1244.000	162
1245.000	162
1246.000	166
1247.000	170
1248.000	167
1249.000	165
1250.000	173
1251.000	167
1252.000	162
1253.000	159
1254.000	161
1255.000	167
1256.000	167
1257.000	156
1258.000	154
1259.000	151
1260.000	162
1261.000	158
1262.000	157
1263.000	154
1264.000	154
1265.000	152
1266.000	152
1267.000	161
1268.000	150
1269.000	152
1270.000	156
1271.000	157
1272.000	155
1273.000	152
1274.000	155
1275.000	155
1276.000	152
1277.000	144
1278.000	153
1279.000	158
1280.000	151
1281.000	161
1282.000	151
1283.000	154
1284.000	155
1285.000	151
1286.000	159
1287.000	165
1288.000	156
1289.000	161
1290.000	157
1291.000	164
1292.000	160
1293.000	166
1294.000	171
1295.000	169
1296.000	175
1297.000	174
1298.000	185
1299.000	188
1300.000	188
1301.000	194
1302.000	193
1303.000	197
1304.000	186
1305.000	195
1306.000	190
1307.000	190
1308.000	188
1309.000	187
1310.000	187
1311.000	189
1312.000	184
1313.000	188
1314.000	184
1315.000	178
1316.000	175
1317.000	173
1318.000	173
1319.000	170
1320.000	157
1321.000	168
1322.000	162
1323.000	158
1324.000	166
1325.000	157
1326.000	160
1327.000	160
1328.000	162
1329.000	159
1330.000	163
1331.000	160
1332.000	152
1333.000	162
1334.000	159
1335.000	158
1336.000	161
1337.000	156
1338.000	153
1339.000	156
1340.000	155
1341.000	155
1342.000	162
1343.000	163
1344.000	155
1345.000	161
1346.000	169
1347.000	166
1348.000	164
1349.000	162
1350.000	161
1351.000	158
1352.000	167
1353.000	172
1354.000	161
1355.000	164
1356.000	178
1357.000	176
1358.000	179
1359.000	191
1360.000	205
1361.000	206
1362.000	219
1363.000	241
1364.000	261
1365.000	287
1366.000	291
1367.000	329
1368.000	363
1369.000	387
1370.000	421
1371.000	430
1372.000	492
1373.000	504
1374.000	535
1375.000	549
1376.000	591
1377.000	596
1378.000	604
1379.000	627
1380.000	615
1381.000	627
1382.000	609
1383.000	594
1384.000	568
1385.000	547
1386.000	521
1387.000	484
1388.000	454
1389.000	408
1390.000	391
1391.000	358
1392.000	329
1393.000	314
1394.000	274
1395.000	254
1396.000	241
1397.000	219
1398.000	210
1399.000	186
1400.000	185
1401.000	176
1402.000	177
1403.000	163
1404.000	167
1405.000	162
1406.000	163
1407.000	158
1408.000	158
1409.000	156
1410.000	153
1411.000	154
1412.000	163
1413.000	154
1414.000	155
1415.000	157
1416.000	156
1417.000	156
1418.000	156
1419.000	157
1420.000	147
1421.000	147
1422.000	155
1423.000	156
1424.000	150
1425.000	158
1426.000	159
1427.000	155
1428.000	152
1429.000	160
1430.000	154
1431.000	158
1432.000	153
1433.000	145
1434.000	158
1435.000	154
1436.000	155
1437.000	156
1438.000	155
1439.000	158
1440.000	160
1441.000	162
1442.000	160
1443.000	163
1444.000	162
1445.000	163
1446.000	165
1447.000	166
1448.000	164
1449.000	167
1450.000	171
1451.000	172
1452.000	172
1453.000	175
1454.000	176
1455.000	175
1456.000	179
1457.000	179
1458.000	180
1459.000	172
1460.000	185
1461.000	180
1462.000	181
1463.000	183
1464.000	179
1465.000	166
1466.000	177
1467.000	166
1468.000	171
1469.000	173
1470.000	165
1471.000	162
1472.000	162
1473.000	163
1474.000	161
1475.000	163
1476.000	158
1477.000	155
1478.000	166
1479.000	157
1480.000	159
1481.000	164
1482.000	158
1483.000	159
1484.000	161
1485.000	161
1486.000	168
1487.000	160
1488.000	156
1489.000	164
1490.000	166
1491.000	164
1492.000	154
1493.000	163
1494.000	159
1495.000	166
1496.000	167
1497.000	163
1498.000	162
1499.000	170
1500.000	163
1501.000	163
1502.000	158
1503.000	165
1504.000	168
1505.000	163
1506.000	165
1507.000	178
1508.000	170
1509.000	166
1510.000	170
1511.000	171
1512.000	173
1513.000	178
1514.000	179
1515.000	181
1516.000	193
1517.000	192
1518.000	194
1519.000	198
1520.000	210
1521.000	206
1522.000	227
1523.000	222
1524.000	243
1525.000	248
1526.000	258
1527.000	261
1528.000	278
1529.000	302
1530.000	302
1531.000	315
1532.000	334
1533.000	326
1534.000	339
1535.000	352
1536.000	355
1537.000	363
1538.000	364
1539.000	368
1540.000	369
1541.000	370
1542.000	359
1543.000	348
1544.000	355
1545.000	352
1546.000	330
1547.000	324
1548.000	325
1549.000	308
1550.000	302
1551.000	284
1552.000	273
1553.000	272
1554.000	271
1555.000	258
1556.000	255
1557.000	243
1558.000	244
1559.000	245
1560.000	247
1561.000	247
1562.000	248
1563.000	248
1564.000	250
1565.000	258
1566.000	262
1567.000	254
1568.000	261
1569.000	262
1570.000	276
1571.000	276
1572.000	284
1573.000	287
1574.000	296
1575.000	300
1576.000	313
1577.000	312
1578.000	328
1579.000	324
1580.000	346
1581.000	351
1582.000	353
1583.000	371
1584.000	371
1585.000	382
1586.000	389
1587.000	405
1588.000	412
1589.000	407
1590.000	428
1591.000	453
1592.000	445
1593.000	459
1594.000	471
1595.000	478
1596.000	476
1597.000	501
1598.000	501
1599.000	512
1600.000	522
1601.000	516
1602.000	533
1603.000	533
1604.000	543
1605.000	549
1606.000	546
1607.000	555
1608.000	557
1609.000	546
1610.000	570
1611.000	563
1612.000	558
1613.000	550
1614.000	550
1615.000	548
1616.000	552
1617.000	537
1618.000	530
1619.000	528
1620.000	516
1621.000	504
1622.000	498
1623.000	480
1624.000	477
1625.000	474
1626.000	446
1627.000	441
1628.000	430
1629.000	435
1630.000	406
1631.000	391
1632.000	380
1633.000	371
1634.000	370
1635.000	347
1636.000	326
1637.000	341
1638.000	328
1639.000	313
1640.000	298
1641.000	303
1642.000	281
1643.000	289
1644.000	273
1645.000	272
1646.000	254
1647.000	247
1648.000	232
1649.000	248
1650.000	235
1651.000	234
1652.000	224
1653.000	222
1654.000	224
1655.000	206
1656.000	209
1657.000	202
1658.000	198
1659.000	204
1660.000	191
1661.000	192
1662.000	179
1663.000	180
1664.000	181
1665.000	184
1666.000	184
1667.000	176
1668.000	174
1669.000	177
1670.000	179
1671.000	170
1672.000	170
1673.000	168
1674.000	176
1675.000	178
1676.000	188
1677.000	183
1678.000	190
1679.000	195
1680.000	212
1681.000	206
1682.000	228
1683.000	243
1684.000	248
1685.000	264
1686.000	284
1687.000	302
1688.000	322
1689.000	339
1690.000	355
1691.000	374
1692.000	390
1693.000	414
1694.000	426
1695.000	450
1696.000	458
1697.000	497
1698.000	495
1699.000	503
1700.000	506
1701.000	513
1702.000	514
1703.000	519
1704.000	500
1705.000	501
1706.000	485
1707.000	474
1708.000	447
1709.000	424
1710.000	414
1711.000	391
1712.000	356
1713.000	346
1714.000	327
1715.000	314
1716.000	293
1717.000	267
1718.000	255
1719.000	225
1720.000	220
1721.000	209
1722.000	202
1723.000	182
1724.000	178
1725.000	171
1726.000	163
1727.000	162
1728.000	148
1729.000	157
1730.000	146
1731.000	143
1732.000	146
1733.000	145
1734.000	140
1735.000	143
1736.000	135
1737.000	133
1738.000	135
1739.000	136
1740.000	138
1741.000	132
1742.000	137
1743.000	135
1744.000	140
1745.000	137
1746.000	129
1747.000	137
1748.000	135
1749.000	134
1750.000	142
1751.000	136
1752.000	137
1753.000	142
1754.000	134
1755.000	137
1756.000	141
1757.000	146
1758.000	136
1759.000	141
1760.000	144
1761.000	149
1762.000	144
1763.000	145
1764.000	148
1765.000	142
1766.000	149
1767.000	149
1768.000	153
1769.000	150
1770.000	157
1771.000	152
1772.000	160
1773.000	158
1774.000	160
1775.000	166
1776.000	162
1777.000	166
1778.000	165
1779.000	161
1780.000	165
1781.000	171
1782.000	173
1783.000	167
1784.000	171
1785.000	171
1786.000	169
1787.000	170
1788.000	170
1789.000	174
1790.000	178
1791.000	175
1792.000	182
1793.000	178
1794.000	175
1795.000	182
1796.000	173
1797.000	182
1798.000	178
1799.000	175
1800.000	180
1801.000	171
1802.000	171
1803.000	177
1804.000	168
1805.000	169
1806.000	176
1807.000	160
1808.000	167
1809.000	169
1810.000	162
1811.000	164
1812.000	158
1813.000	158
1814.000	152
1815.000	143
1816.000	155
1817.000	153
1818.000	147
1819.000	146
1820.000	147
1821.000	145
1822.000	147
1823.000	136
1824.000	129
1825.000	132
1826.000	130
1827.000	133
1828.000	128
1829.000	119
1830.000	124
1831.000	125
1832.000	121
1833.000	115
1834.000	113
1835.000	113
1836.000	109
1837.000	114
1838.000	110
1839.000	107
1840.000	105
1841.000	103
1842.000	102
1843.000	98
1844.000	99
1845.000	101
1846.000	98
1847.000	93
1848.000	90
1849.000	97
1850.000	96
1851.000	88
1852.000	93
1853.000	84
1854.000	93
1855.000	88
1856.000	84
1857.000	90
1858.000	84
1859.000	84
1860.000	85
1861.000	80
1862.000	75
1863.000	80
1864.000	79
1865.000	79
1866.000	78
1867.000	79
1868.000	73
1869.000	74
1870.000	74
1871.000	81
1872.000	75
1873.000	78
1874.000	70
1875.000	72
1876.000	69
1877.000	71
1878.000	74
1879.000	73
1880.000	74
1881.000	71
1882.000	68
1883.000	71
1884.000	71
1885.000	70
1886.000	69
1887.000	70
1888.000	66
1889.000	74
1890.000	75
1891.000	77
1892.000	71
1893.000	70
1894.000	76
1895.000	77
1896.000	78
1897.000	86
1898.000	88
1899.000	93
1900.000	89
1901.000	92
1902.000	98
1903.000	104
1904.000	100
1905.000	103
1906.000	109
1907.000	112
1908.000	111
1909.000	114
1910.000	115
1911.000	118
1912.000	118
1913.000	116
1914.000	114
1915.000	109
1916.000	113
1917.000	110
1918.000	108
1919.000	103
1920.000	101
1921.000	90
1922.000	92
1923.000	85
1924.000	82
1925.000	81
1926.000	79
1927.000	73
1928.000	69
1929.000	73
1930.000	70
1931.000	65
1932.000	67
1933.000	63
1934.000	67
1935.000	62
1936.000	63
1937.000	59
1938.000	63
1939.000	63
1940.000	62
1941.000	65
1942.000	63
1943.000	59
1944.000	58
1945.000	64
1946.000	61
1947.000	64
1948.000	65
1949.000	59
1950.000	57
1951.000	64
1952.000	60
1953.000	60
1954.000	56
1955.000	55
1956.000	58
1957.000	52
1958.000	54
1959.000	52
1960.000	49
1961.000	48
1962.000	49
1963.000	48
1964.000	53
1965.000	48
1966.000	48
1967.000	47
1968.000	46
1969.000	44
1970.000	46
1971.000	48
1972.000	45
1973.000	44
1974.000	48
1975.000	50
1976.000	49
1977.000	48
1978.000	48
1979.000	45
1980.000	49
1981.000	46
1982.000	48
1983.000	46
1984.000	45
1985.000	46
1986.000	46
1987.000	44
1988.000	49
1989.000	48
1990.000	47
1991.000	41
1992.000	46
1993.000	45
1994.000	46
1995.000	47
1996.000	49
1997.000	49
1998.000	46
1999.000	47
2000.000	42
2001.000	47
2002.000	50
2003.000	45
2004.000	45
2005.000	46
2006.000	46
2007.000	46
2008.000	44
2009.000	45
2010.000	47
2011.000	43
2012.000	46
2013.000	47
2014.000	48
2015.000	47
2016.000	46
2017.000	42
2018.000	46
2019.000	43
2020.000	43
2021.000	41
2022.000	43
2023.000	46
2024.000	46
2025.000	44
2026.000	41
2027.000	40
2028.000	41
2029.000	42
2030.000	45
2031.000	47
2032.000	44
2033.000	42
2034.000	43
2035.000	43
2036.000	45
2037.000	40
2038.000	46
2039.000	43
2040.000	44
2041.000	43
2042.000	45
2043.000	42
2044.000	41
2045.000	43
2046.000	45
2047.000	41
2048.000	0
