Date:	17-Sep-20		Time:	11:47 PM		Version no:	0.00		Project name:	55		Sample name:	222		Section name:	section		Position	0.000000	mm	E0	0.000000	keV	E1	1.000000	keV/channel	sample surface	2.000000	cm	Tube anode:	Mo		Tube voltage:	30	kV	Tube current:	30	mA	gain	15		std. database			resultfile	result		matrix element	11		sample thickness	1.000000		air passage	0.560000	cm	comments	not in position		peaking_time	0.300000	m-sec	trigger_threshold	40.000000	V	mca_bin_width	2.000000	no:	number_mca_channels	2048.000000	no:	gap_time	2048.000000	m-sec	trigger_peaking_time	2048.000000	m-sec	GAINDAC	400		HIGHGAIN	400		TAURC	400		RCTAU	400		RCTAUFRAC	400		livetime	13.014294	seconds	runtime	15.000232	seconds	input_count_rate	80431.410221	cps	output_count_rate	69782.785033	cps	triggers	1173264	seconds	events_in_run	1020480	seconds	channel	content		1.000	0
2.000	0
3.000	0
4.000	0
5.000	0
6.000	0
7.000	0
8.000	0
9.000	0
10.000	0
11.000	0
12.000	0
13.000	0
14.000	0
15.000	0
16.000	0
17.000	0
18.000	0
19.000	0
20.000	0
21.000	0
22.000	0
23.000	0
24.000	0
25.000	0
26.000	0
27.000	0
28.000	0
29.000	0
30.000	0
31.000	0
32.000	0
33.000	0
34.000	1
35.000	0
36.000	0
37.000	0
38.000	0
39.000	0
40.000	1
41.000	0
42.000	0
43.000	0
44.000	0
45.000	0
46.000	0
47.000	0
48.000	0
49.000	1
50.000	1
51.000	1
52.000	2
53.000	2
54.000	3
55.000	4
56.000	6
57.000	7
58.000	12
59.000	19
60.000	19
61.000	24
62.000	27
63.000	32
64.000	32
65.000	29
66.000	29
67.000	28
68.000	26
69.000	26
70.000	29
71.000	27
72.000	24
73.000	28
74.000	23
75.000	24
76.000	27
77.000	25
78.000	23
79.000	24
80.000	24
81.000	22
82.000	24
83.000	26
84.000	24
85.000	27
86.000	24
87.000	24
88.000	26
89.000	25
90.000	23
91.000	21
92.000	20
93.000	21
94.000	25
95.000	22
96.000	21
97.000	20
98.000	20
99.000	21
100.000	21
101.000	20
102.000	19
103.000	19
104.000	19
105.000	19
106.000	18
107.000	22
108.000	18
109.000	20
110.000	21
111.000	19
112.000	14
113.000	18
114.000	16
115.000	18
116.000	18
117.000	17
118.000	17
119.000	15
120.000	17
121.000	16
122.000	17
123.000	15
124.000	17
125.000	16
126.000	17
127.000	16
128.000	15
129.000	17
130.000	13
131.000	15
132.000	15
133.000	15
134.000	14
135.000	16
136.000	13
137.000	15
138.000	16
139.000	17
140.000	19
141.000	23
142.000	24
143.000	25
144.000	25
145.000	27
146.000	26
147.000	27
148.000	25
149.000	22
150.000	22
151.000	19
152.000	23
153.000	19
154.000	17
155.000	20
156.000	17
157.000	15
158.000	15
159.000	14
160.000	16
161.000	14
162.000	18
163.000	23
164.000	30
165.000	43
166.000	54
167.000	70
168.000	89
169.000	107
170.000	106
171.000	108
172.000	109
173.000	96
174.000	79
175.000	64
176.000	54
177.000	41
178.000	32
179.000	32
180.000	31
181.000	31
182.000	35
183.000	40
184.000	48
185.000	58
186.000	78
187.000	101
188.000	129
189.000	139
190.000	153
191.000	158
192.000	153
193.000	145
194.000	115
195.000	93
196.000	72
197.000	55
198.000	44
199.000	28
200.000	25
201.000	19
202.000	16
203.000	16
204.000	13
205.000	14
206.000	13
207.000	14
208.000	14
209.000	15
210.000	13
211.000	14
212.000	14
213.000	14
214.000	17
215.000	16
216.000	16
217.000	21
218.000	23
219.000	26
220.000	28
221.000	33
222.000	33
223.000	31
224.000	31
225.000	29
226.000	29
227.000	28
228.000	21
229.000	20
230.000	18
231.000	16
232.000	12
233.000	12
234.000	12
235.000	11
236.000	11
237.000	11
238.000	12
239.000	12
240.000	12
241.000	11
242.000	13
243.000	12
244.000	13
245.000	12
246.000	15
247.000	18
248.000	22
249.000	30
250.000	39
251.000	48
252.000	63
253.000	77
254.000	102
255.000	107
256.000	121
257.000	113
258.000	123
259.000	111
260.000	99
261.000	81
262.000	65
263.000	55
264.000	43
265.000	30
266.000	25
267.000	25
268.000	19
269.000	22
270.000	20
271.000	23
272.000	25
273.000	27
274.000	26
275.000	29
276.000	27
277.000	26
278.000	25
279.000	23
280.000	26
281.000	26
282.000	27
283.000	32
284.000	38
285.000	49
286.000	60
287.000	59
288.000	77
289.000	75
290.000	80
291.000	75
292.000	68
293.000	64
294.000	52
295.000	44
296.000	38
297.000	28
298.000	26
299.000	21
300.000	17
301.000	16
302.000	15
303.000	15
304.000	19
305.000	17
306.000	23
307.000	21
308.000	23
309.000	23
310.000	27
311.000	33
312.000	38
313.000	42
314.000	50
315.000	67
316.000	91
317.000	119
318.000	158
319.000	210
320.000	258
321.000	314
322.000	361
323.000	406
324.000	417
325.000	407
326.000	400
327.000	367
328.000	319
329.000	261
330.000	211
331.000	166
332.000	120
333.000	82
334.000	62
335.000	48
336.000	34
337.000	30
338.000	29
339.000	29
340.000	32
341.000	41
342.000	48
343.000	60
344.000	77
345.000	101
346.000	149
347.000	210
348.000	326
349.000	494
350.000	779
351.000	1177
352.000	1765
353.000	2563
354.000	3636
355.000	4929
356.000	6490
357.000	8191
358.000	9679
359.000	11139
360.000	12169
361.000	12636
362.000	12553
363.000	11892
364.000	10780
365.000	9290
366.000	7669
367.000	6050
368.000	4513
369.000	3273
370.000	2224
371.000	1468
372.000	947
373.000	596
374.000	351
375.000	218
376.000	157
377.000	115
378.000	110
379.000	114
380.000	130
381.000	177
382.000	233
383.000	305
384.000	423
385.000	565
386.000	727
387.000	932
388.000	1163
389.000	1380
390.000	1557
391.000	1730
392.000	1843
393.000	1866
394.000	1784
395.000	1684
396.000	1489
397.000	1278
398.000	1028
399.000	819
400.000	622
401.000	432
402.000	303
403.000	204
404.000	138
405.000	87
406.000	55
407.000	32
408.000	25
409.000	17
410.000	12
411.000	9
412.000	10
413.000	9
414.000	9
415.000	8
416.000	7
417.000	7
418.000	8
419.000	8
420.000	10
421.000	9
422.000	10
423.000	11
424.000	12
425.000	17
426.000	17
427.000	28
428.000	30
429.000	48
430.000	67
431.000	94
432.000	132
433.000	180
434.000	245
435.000	316
436.000	386
437.000	451
438.000	513
439.000	589
440.000	619
441.000	628
442.000	622
443.000	591
444.000	543
445.000	469
446.000	398
447.000	330
448.000	255
449.000	209
450.000	153
451.000	122
452.000	98
453.000	78
454.000	65
455.000	59
456.000	51
457.000	50
458.000	48
459.000	38
460.000	35
461.000	28
462.000	25
463.000	24
464.000	22
465.000	22
466.000	21
467.000	23
468.000	26
469.000	29
470.000	34
471.000	36
472.000	39
473.000	47
474.000	59
475.000	62
476.000	71
477.000	81
478.000	95
479.000	103
480.000	113
481.000	124
482.000	123
483.000	121
484.000	117
485.000	111
486.000	101
487.000	91
488.000	80
489.000	66
490.000	54
491.000	45
492.000	40
493.000	33
494.000	25
495.000	23
496.000	19
497.000	19
498.000	18
499.000	18
500.000	18
501.000	18
502.000	20
503.000	22
504.000	20
505.000	21
506.000	21
507.000	22
508.000	22
509.000	25
510.000	25
511.000	25
512.000	26
513.000	27
514.000	28
515.000	31
516.000	32
517.000	30
518.000	33
519.000	37
520.000	40
521.000	40
522.000	44
523.000	49
524.000	51
525.000	52
526.000	56
527.000	62
528.000	63
529.000	61
530.000	59
531.000	62
532.000	56
533.000	50
534.000	51
535.000	49
536.000	40
537.000	36
538.000	36
539.000	30
540.000	30
541.000	28
542.000	29
543.000	29
544.000	30
545.000	26
546.000	25
547.000	28
548.000	24
549.000	26
550.000	27
551.000	28
552.000	29
553.000	29
554.000	27
555.000	26
556.000	30
557.000	30
558.000	28
559.000	32
560.000	32
561.000	34
562.000	40
563.000	43
564.000	50
565.000	52
566.000	65
567.000	76
568.000	92
569.000	104
570.000	128
571.000	140
572.000	161
573.000	177
574.000	193
575.000	207
576.000	205
577.000	194
578.000	205
579.000	189
580.000	176
581.000	151
582.000	139
583.000	116
584.000	96
585.000	79
586.000	71
587.000	66
588.000	56
589.000	46
590.000	42
591.000	41
592.000	40
593.000	39
594.000	42
595.000	40
596.000	43
597.000	42
598.000	46
599.000	48
600.000	49
601.000	53
602.000	56
603.000	62
604.000	68
605.000	80
606.000	97
607.000	134
608.000	164
609.000	240
610.000	335
611.000	483
612.000	675
613.000	965
614.000	1323
615.000	1795
616.000	2399
617.000	3104
618.000	3896
619.000	4744
620.000	5630
621.000	6493
622.000	7307
623.000	7929
624.000	8343
625.000	8590
626.000	8509
627.000	8220
628.000	7749
629.000	7018
630.000	6258
631.000	5296
632.000	4380
633.000	3562
634.000	2820
635.000	2168
636.000	1601
637.000	1170
638.000	831
639.000	597
640.000	414
641.000	301
642.000	200
643.000	149
644.000	116
645.000	99
646.000	86
647.000	74
648.000	72
649.000	62
650.000	63
651.000	63
652.000	65
653.000	69
654.000	66
655.000	63
656.000	65
657.000	65
658.000	69
659.000	62
660.000	66
661.000	69
662.000	70
663.000	76
664.000	77
665.000	74
666.000	77
667.000	80
668.000	88
669.000	98
670.000	99
671.000	109
672.000	124
673.000	135
674.000	164
675.000	190
676.000	231
677.000	284
678.000	352
679.000	426
680.000	527
681.000	620
682.000	744
683.000	899
684.000	1015
685.000	1134
686.000	1234
687.000	1315
688.000	1374
689.000	1407
690.000	1411
691.000	1360
692.000	1278
693.000	1173
694.000	1052
695.000	892
696.000	788
697.000	653
698.000	517
699.000	419
700.000	341
701.000	260
702.000	209
703.000	174
704.000	134
705.000	109
706.000	88
707.000	76
708.000	71
709.000	70
710.000	63
711.000	60
712.000	63
713.000	61
714.000	65
715.000	66
716.000	66
717.000	69
718.000	76
719.000	75
720.000	78
721.000	78
722.000	83
723.000	91
724.000	89
725.000	91
726.000	92
727.000	102
728.000	96
729.000	98
730.000	99
731.000	96
732.000	92
733.000	98
734.000	91
735.000	89
736.000	79
737.000	82
738.000	82
739.000	77
740.000	74
741.000	70
742.000	71
743.000	66
744.000	69
745.000	70
746.000	69
747.000	68
748.000	70
749.000	68
750.000	72
751.000	69
752.000	73
753.000	66
754.000	76
755.000	68
756.000	67
757.000	64
758.000	69
759.000	74
760.000	68
761.000	71
762.000	73
763.000	72
764.000	75
765.000	79
766.000	73
767.000	76
768.000	78
769.000	80
770.000	84
771.000	86
772.000	79
773.000	84
774.000	92
775.000	89
776.000	96
777.000	97
778.000	101
779.000	107
780.000	112
781.000	118
782.000	120
783.000	122
784.000	124
785.000	129
786.000	133
787.000	133
788.000	142
789.000	142
790.000	142
791.000	138
792.000	155
793.000	145
794.000	143
795.000	142
796.000	141
797.000	152
798.000	150
799.000	148
800.000	142
801.000	149
802.000	149
803.000	162
804.000	147
805.000	157
806.000	158
807.000	169
808.000	181
809.000	185
810.000	193
811.000	206
812.000	222
813.000	240
814.000	259
815.000	266
816.000	282
817.000	284
818.000	296
819.000	301
820.000	303
821.000	299
822.000	293
823.000	277
824.000	264
825.000	245
826.000	227
827.000	210
828.000	193
829.000	181
830.000	164
831.000	150
832.000	143
833.000	146
834.000	136
835.000	130
836.000	131
837.000	124
838.000	130
839.000	133
840.000	133
841.000	139
842.000	139
843.000	137
844.000	135
845.000	138
846.000	137
847.000	132
848.000	129
849.000	129
850.000	126
851.000	126
852.000	124
853.000	118
854.000	122
855.000	128
856.000	119
857.000	123
858.000	113
859.000	123
860.000	112
861.000	116
862.000	114
863.000	115
864.000	113
865.000	115
866.000	122
867.000	118
868.000	114
869.000	121
870.000	117
871.000	116
872.000	123
873.000	120
874.000	124
875.000	125
876.000	122
877.000	122
878.000	120
879.000	120
880.000	114
881.000	118
882.000	125
883.000	121
884.000	122
885.000	125
886.000	117
887.000	120
888.000	125
889.000	132
890.000	128
891.000	140
892.000	130
893.000	136
894.000	129
895.000	135
896.000	139
897.000	143
898.000	152
899.000	147
900.000	149
901.000	154
902.000	157
903.000	165
904.000	156
905.000	160
906.000	160
907.000	167
908.000	167
909.000	170
910.000	169
911.000	169
912.000	173
913.000	176
914.000	175
915.000	176
916.000	179
917.000	178
918.000	165
919.000	181
920.000	171
921.000	187
922.000	180
923.000	182
924.000	196
925.000	191
926.000	182
927.000	187
928.000	190
929.000	200
930.000	200
931.000	206
932.000	214
933.000	213
934.000	220
935.000	222
936.000	236
937.000	237
938.000	246
939.000	257
940.000	248
941.000	264
942.000	251
943.000	263
944.000	272
945.000	261
946.000	258
947.000	252
948.000	244
949.000	242
950.000	237
951.000	224
952.000	214
953.000	207
954.000	196
955.000	194
956.000	178
957.000	181
958.000	181
959.000	178
960.000	177
961.000	182
962.000	179
963.000	178
964.000	176
965.000	178
966.000	186
967.000	187
968.000	182
969.000	182
970.000	179
971.000	189
972.000	192
973.000	191
974.000	181
975.000	177
976.000	179
977.000	179
978.000	170
979.000	170
980.000	164
981.000	167
982.000	164
983.000	164
984.000	157
985.000	153
986.000	157
987.000	151
988.000	153
989.000	147
990.000	145
991.000	147
992.000	146
993.000	144
994.000	141
995.000	137
996.000	146
997.000	141
998.000	140
999.000	140
1000.000	135
1001.000	134
1002.000	128
1003.000	142
1004.000	138
1005.000	139
1006.000	136
1007.000	141
1008.000	130
1009.000	144
1010.000	140
1011.000	139
1012.000	136
1013.000	139
1014.000	135
1015.000	140
1016.000	142
1017.000	137
1018.000	134
1019.000	141
1020.000	138
1021.000	144
1022.000	151
1023.000	141
1024.000	143
1025.000	137
1026.000	143
1027.000	150
1028.000	141
1029.000	141
1030.000	141
1031.000	145
1032.000	152
1033.000	143
1034.000	140
1035.000	151
1036.000	143
1037.000	142
1038.000	149
1039.000	147
1040.000	152
1041.000	150
1042.000	147
1043.000	149
1044.000	151
1045.000	144
1046.000	149
1047.000	154
1048.000	156
1049.000	161
1050.000	158
1051.000	153
1052.000	154
1053.000	158
1054.000	151
1055.000	157
1056.000	160
1057.000	159
1058.000	167
1059.000	164
1060.000	160
1061.000	163
1062.000	164
1063.000	158
1064.000	154
1065.000	161
1066.000	159
1067.000	163
1068.000	159
1069.000	162
1070.000	162
1071.000	158
1072.000	162
1073.000	160
1074.000	162
1075.000	161
1076.000	156
1077.000	158
1078.000	159
1079.000	157
1080.000	161
1081.000	156
1082.000	162
1083.000	153
1084.000	161
1085.000	156
1086.000	152
1087.000	159
1088.000	163
1089.000	160
1090.000	158
1091.000	165
1092.000	172
1093.000	168
1094.000	169
1095.000	166
1096.000	169
1097.000	172
1098.000	171
1099.000	171
1100.000	181
1101.000	178
1102.000	168
1103.000	179
1104.000	171
1105.000	170
1106.000	170
1107.000	173
1108.000	169
1109.000	165
1110.000	169
1111.000	165
1112.000	168
1113.000	166
1114.000	163
1115.000	163
1116.000	162
1117.000	161
1118.000	163
1119.000	163
1120.000	162
1121.000	164
1122.000	159
1123.000	159
1124.000	162
1125.000	153
1126.000	164
1127.000	160
1128.000	167
1129.000	159
1130.000	163
1131.000	166
1132.000	161
1133.000	167
1134.000	163
1135.000	162
1136.000	167
1137.000	163
1138.000	164
1139.000	164
1140.000	163
1141.000	163
1142.000	172
1143.000	158
1144.000	164
1145.000	169
1146.000	171
1147.000	163
1148.000	172
1149.000	165
1150.000	173
1151.000	173
1152.000	170
1153.000	178
1154.000	183
1155.000	176
1156.000	176
1157.000	177
1158.000	182
1159.000	188
1160.000	189
1161.000	183
1162.000	178
1163.000	184
1164.000	184
1165.000	174
1166.000	175
1167.000	180
1168.000	185
1169.000	182
1170.000	180
1171.000	174
1172.000	172
1173.000	163
1174.000	167
1175.000	169
1176.000	166
1177.000	166
1178.000	165
1179.000	162
1180.000	167
1181.000	168
1182.000	157
1183.000	159
1184.000	152
1185.000	161
1186.000	157
1187.000	163
1188.000	163
1189.000	163
1190.000	158
1191.000	164
1192.000	162
1193.000	166
1194.000	160
1195.000	162
1196.000	158
1197.000	157
1198.000	166
1199.000	162
1200.000	157
1201.000	161
1202.000	161
1203.000	157
1204.000	171
1205.000	176
1206.000	165
1207.000	170
1208.000	170
1209.000	166
1210.000	166
1211.000	168
1212.000	164
1213.000	164
1214.000	164
1215.000	168
1216.000	170
1217.000	168
1218.000	168
1219.000	169
1220.000	177
1221.000	164
1222.000	168
1223.000	164
1224.000	167
1225.000	172
1226.000	167
1227.000	175
1228.000	168
1229.000	166
1230.000	178
1231.000	173
1232.000	179
1233.000	178
1234.000	173
1235.000	174
1236.000	173
1237.000	170
1238.000	171
1239.000	175
1240.000	179
1241.000	178
1242.000	168
1243.000	171
1244.000	171
1245.000	175
1246.000	168
1247.000	165
1248.000	170
1249.000	174
1250.000	175
1251.000	176
1252.000	181
1253.000	174
1254.000	169
1255.000	178
1256.000	174
1257.000	171
1258.000	175
1259.000	174
1260.000	178
1261.000	172
1262.000	180
1263.000	172
1264.000	172
1265.000	175
1266.000	172
1267.000	165
1268.000	174
1269.000	166
1270.000	169
1271.000	170
1272.000	175
1273.000	174
1274.000	176
1275.000	176
1276.000	168
1277.000	178
1278.000	168
1279.000	173
1280.000	169
1281.000	170
1282.000	176
1283.000	175
1284.000	174
1285.000	179
1286.000	176
1287.000	176
1288.000	185
1289.000	182
1290.000	192
1291.000	184
1292.000	185
1293.000	187
1294.000	196
1295.000	193
1296.000	201
1297.000	188
1298.000	190
1299.000	208
1300.000	199
1301.000	206
1302.000	207
1303.000	205
1304.000	202
1305.000	200
1306.000	206
1307.000	205
1308.000	202
1309.000	202
1310.000	196
1311.000	192
1312.000	191
1313.000	193
1314.000	187
1315.000	187
1316.000	200
1317.000	176
1318.000	181
1319.000	182
1320.000	187
1321.000	178
1322.000	181
1323.000	179
1324.000	177
1325.000	180
1326.000	187
1327.000	179
1328.000	187
1329.000	179
1330.000	177
1331.000	174
1332.000	181
1333.000	180
1334.000	172
1335.000	170
1336.000	183
1337.000	175
1338.000	181
1339.000	178
1340.000	177
1341.000	184
1342.000	172
1343.000	174
1344.000	181
1345.000	183
1346.000	178
1347.000	186
1348.000	179
1349.000	189
1350.000	182
1351.000	179
1352.000	184
1353.000	189
1354.000	190
1355.000	196
1356.000	202
1357.000	207
1358.000	215
1359.000	221
1360.000	237
1361.000	247
1362.000	263
1363.000	281
1364.000	307
1365.000	331
1366.000	369
1367.000	391
1368.000	427
1369.000	467
1370.000	506
1371.000	548
1372.000	588
1373.000	628
1374.000	658
1375.000	683
1376.000	713
1377.000	764
1378.000	757
1379.000	787
1380.000	780
1381.000	765
1382.000	750
1383.000	726
1384.000	713
1385.000	668
1386.000	635
1387.000	619
1388.000	553
1389.000	530
1390.000	466
1391.000	429
1392.000	403
1393.000	366
1394.000	330
1395.000	309
1396.000	284
1397.000	252
1398.000	233
1399.000	223
1400.000	214
1401.000	210
1402.000	196
1403.000	184
1404.000	185
1405.000	180
1406.000	176
1407.000	183
1408.000	176
1409.000	175
1410.000	181
1411.000	170
1412.000	176
1413.000	177
1414.000	177
1415.000	173
1416.000	179
1417.000	172
1418.000	175
1419.000	173
1420.000	180
1421.000	174
1422.000	175
1423.000	175
1424.000	173
1425.000	177
1426.000	175
1427.000	176
1428.000	175
1429.000	175
1430.000	174
1431.000	177
1432.000	182
1433.000	180
1434.000	171
1435.000	170
1436.000	179
1437.000	182
1438.000	176
1439.000	175
1440.000	183
1441.000	184
1442.000	185
1443.000	178
1444.000	186
1445.000	181
1446.000	184
1447.000	179
1448.000	187
1449.000	192
1450.000	189
1451.000	197
1452.000	195
1453.000	192
1454.000	192
1455.000	191
1456.000	198
1457.000	194
1458.000	194
1459.000	186
1460.000	190
1461.000	202
1462.000	194
1463.000	192
1464.000	188
1465.000	181
1466.000	186
1467.000	188
1468.000	183
1469.000	184
1470.000	192
1471.000	183
1472.000	188
1473.000	183
1474.000	181
1475.000	193
1476.000	188
1477.000	180
1478.000	172
1479.000	184
1480.000	184
1481.000	181
1482.000	180
1483.000	185
1484.000	188
1485.000	188
1486.000	184
1487.000	174
1488.000	183
1489.000	181
1490.000	187
1491.000	188
1492.000	184
1493.000	194
1494.000	181
1495.000	180
1496.000	190
1497.000	189
1498.000	187
1499.000	193
1500.000	189
1501.000	183
1502.000	185
1503.000	188
1504.000	191
1505.000	191
1506.000	187
1507.000	193
1508.000	186
1509.000	198
1510.000	194
1511.000	200
1512.000	199
1513.000	190
1514.000	196
1515.000	199
1516.000	206
1517.000	205
1518.000	202
1519.000	205
1520.000	212
1521.000	224
1522.000	217
1523.000	242
1524.000	243
1525.000	248
1526.000	247
1527.000	259
1528.000	265
1529.000	280
1530.000	282
1531.000	293
1532.000	295
1533.000	324
1534.000	326
1535.000	335
1536.000	329
1537.000	342
1538.000	352
1539.000	366
1540.000	370
1541.000	370
1542.000	368
1543.000	359
1544.000	372
1545.000	367
1546.000	364
1547.000	354
1548.000	341
1549.000	337
1550.000	332
1551.000	321
1552.000	315
1553.000	306
1554.000	296
1555.000	293
1556.000	298
1557.000	280
1558.000	288
1559.000	284
1560.000	283
1561.000	285
1562.000	275
1563.000	280
1564.000	290
1565.000	288
1566.000	301
1567.000	301
1568.000	305
1569.000	314
1570.000	309
1571.000	320
1572.000	327
1573.000	335
1574.000	346
1575.000	352
1576.000	365
1577.000	368
1578.000	383
1579.000	397
1580.000	395
1581.000	405
1582.000	412
1583.000	431
1584.000	445
1585.000	455
1586.000	465
1587.000	474
1588.000	491
1589.000	506
1590.000	503
1591.000	529
1592.000	525
1593.000	546
1594.000	564
1595.000	564
1596.000	584
1597.000	582
1598.000	612
1599.000	599
1600.000	620
1601.000	614
1602.000	630
1603.000	618
1604.000	638
1605.000	646
1606.000	638
1607.000	636
1608.000	628
1609.000	646
1610.000	653
1611.000	636
1612.000	627
1613.000	639
1614.000	626
1615.000	620
1616.000	599
1617.000	596
1618.000	596
1619.000	589
1620.000	558
1621.000	570
1622.000	565
1623.000	552
1624.000	531
1625.000	526
1626.000	514
1627.000	491
1628.000	478
1629.000	470
1630.000	460
1631.000	451
1632.000	431
1633.000	419
1634.000	390
1635.000	411
1636.000	388
1637.000	363
1638.000	363
1639.000	353
1640.000	348
1641.000	339
1642.000	322
1643.000	315
1644.000	295
1645.000	293
1646.000	295
1647.000	283
1648.000	277
1649.000	274
1650.000	270
1651.000	260
1652.000	250
1653.000	250
1654.000	241
1655.000	231
1656.000	233
1657.000	227
1658.000	222
1659.000	219
1660.000	222
1661.000	211
1662.000	208
1663.000	217
1664.000	207
1665.000	197
1666.000	185
1667.000	189
1668.000	185
1669.000	193
1670.000	200
1671.000	195
1672.000	198
1673.000	196
1674.000	200
1675.000	196
1676.000	199
1677.000	204
1678.000	200
1679.000	213
1680.000	216
1681.000	237
1682.000	241
1683.000	264
1684.000	269
1685.000	289
1686.000	307
1687.000	333
1688.000	350
1689.000	359
1690.000	393
1691.000	411
1692.000	419
1693.000	457
1694.000	454
1695.000	478
1696.000	492
1697.000	516
1698.000	534
1699.000	543
1700.000	552
1701.000	552
1702.000	540
1703.000	551
1704.000	550
1705.000	531
1706.000	521
1707.000	508
1708.000	486
1709.000	460
1710.000	443
1711.000	422
1712.000	394
1713.000	367
1714.000	345
1715.000	325
1716.000	303
1717.000	277
1718.000	265
1719.000	242
1720.000	226
1721.000	214
1722.000	203
1723.000	191
1724.000	185
1725.000	185
1726.000	179
1727.000	175
1728.000	158
1729.000	161
1730.000	167
1731.000	163
1732.000	153
1733.000	152
1734.000	154
1735.000	163
1736.000	148
1737.000	153
1738.000	148
1739.000	152
1740.000	151
1741.000	146
1742.000	149
1743.000	149
1744.000	150
1745.000	151
1746.000	155
1747.000	154
1748.000	152
1749.000	150
1750.000	153
1751.000	151
1752.000	156
1753.000	152
1754.000	153
1755.000	153
1756.000	157
1757.000	158
1758.000	163
1759.000	162
1760.000	167
1761.000	164
1762.000	170
1763.000	163
1764.000	168
1765.000	165
1766.000	174
1767.000	168
1768.000	178
1769.000	178
1770.000	182
1771.000	180
1772.000	177
1773.000	186
1774.000	190
1775.000	190
1776.000	184
1777.000	190
1778.000	195
1779.000	191
1780.000	197
1781.000	194
1782.000	193
1783.000	198
1784.000	195
1785.000	205
1786.000	197
1787.000	204
1788.000	200
1789.000	204
1790.000	206
1791.000	206
1792.000	203
1793.000	210
1794.000	206
1795.000	205
1796.000	205
1797.000	206
1798.000	204
1799.000	204
1800.000	204
1801.000	196
1802.000	197
1803.000	195
1804.000	198
1805.000	204
1806.000	189
1807.000	192
1808.000	194
1809.000	184
1810.000	188
1811.000	190
1812.000	177
1813.000	187
1814.000	178
1815.000	168
1816.000	175
1817.000	179
1818.000	165
1819.000	164
1820.000	161
1821.000	163
1822.000	150
1823.000	150
1824.000	147
1825.000	149
1826.000	145
1827.000	146
1828.000	140
1829.000	141
1830.000	142
1831.000	131
1832.000	128
1833.000	132
1834.000	132
1835.000	130
1836.000	126
1837.000	128
1838.000	119
1839.000	121
1840.000	112
1841.000	121
1842.000	118
1843.000	116
1844.000	116
1845.000	114
1846.000	108
1847.000	106
1848.000	103
1849.000	108
1850.000	100
1851.000	108
1852.000	97
1853.000	99
1854.000	100
1855.000	93
1856.000	95
1857.000	97
1858.000	92
1859.000	94
1860.000	97
1861.000	94
1862.000	98
1863.000	85
1864.000	87
1865.000	92
1866.000	84
1867.000	84
1868.000	88
1869.000	78
1870.000	77
1871.000	81
1872.000	81
1873.000	81
1874.000	80
1875.000	78
1876.000	78
1877.000	81
1878.000	80
1879.000	84
1880.000	84
1881.000	81
1882.000	78
1883.000	78
1884.000	78
1885.000	75
1886.000	79
1887.000	75
1888.000	75
1889.000	80
1890.000	86
1891.000	81
1892.000	84
1893.000	86
1894.000	86
1895.000	87
1896.000	92
1897.000	94
1898.000	95
1899.000	94
1900.000	104
1901.000	107
1902.000	108
1903.000	111
1904.000	113
1905.000	116
1906.000	120
1907.000	118
1908.000	120
1909.000	124
1910.000	132
1911.000	122
1912.000	123
1913.000	129
1914.000	124
1915.000	116
1916.000	121
1917.000	119
1918.000	115
1919.000	110
1920.000	101
1921.000	103
1922.000	101
1923.000	93
1924.000	91
1925.000	91
1926.000	88
1927.000	81
1928.000	83
1929.000	83
1930.000	79
1931.000	75
1932.000	71
1933.000	75
1934.000	70
1935.000	69
1936.000	72
1937.000	69
1938.000	69
1939.000	67
1940.000	72
1941.000	71
1942.000	72
1943.000	69
1944.000	71
1945.000	71
1946.000	72
1947.000	71
1948.000	72
1949.000	71
1950.000	66
1951.000	67
1952.000	60
1953.000	64
1954.000	63
1955.000	58
1956.000	64
1957.000	65
1958.000	58
1959.000	60
1960.000	61
1961.000	56
1962.000	56
1963.000	59
1964.000	58
1965.000	54
1966.000	57
1967.000	52
1968.000	57
1969.000	57
1970.000	56
1971.000	57
1972.000	57
1973.000	55
1974.000	51
1975.000	52
1976.000	55
1977.000	52
1978.000	58
1979.000	54
1980.000	58
1981.000	52
1982.000	52
1983.000	57
1984.000	57
1985.000	52
1986.000	57
1987.000	52
1988.000	49
1989.000	53
1990.000	54
1991.000	56
1992.000	52
1993.000	52
1994.000	54
1995.000	51
1996.000	55
1997.000	48
1998.000	54
1999.000	52
2000.000	53
2001.000	50
2002.000	53
2003.000	54
2004.000	50
2005.000	55
2006.000	53
2007.000	53
2008.000	52
2009.000	51
2010.000	52
2011.000	51
2012.000	52
2013.000	52
2014.000	50
2015.000	57
2016.000	52
2017.000	51
2018.000	55
2019.000	56
2020.000	54
2021.000	53
2022.000	49
2023.000	48
2024.000	47
2025.000	47
2026.000	54
2027.000	52
2028.000	52
2029.000	48
2030.000	50
2031.000	50
2032.000	53
2033.000	46
2034.000	53
2035.000	49
2036.000	52
2037.000	47
2038.000	46
2039.000	50
2040.000	47
2041.000	48
2042.000	47
2043.000	49
2044.000	47
2045.000	47
2046.000	50
2047.000	51
2048.000	0
