Date:	17-Sep-20		Time:	11:47 PM		Version no:	0.00		Project name:	55		Sample name:	222		Section name:	section		Position	0.000000	mm	E0	0.000000	keV	E1	1.000000	keV/channel	sample surface	2.000000	cm	Tube anode:	Mo		Tube voltage:	30	kV	Tube current:	30	mA	gain	15		std. database			resultfile	result		matrix element	11		sample thickness	1.000000		air passage	0.560000	cm	comments	not in position		peaking_time	0.300000	m-sec	trigger_threshold	40.000000	V	mca_bin_width	2.000000	no:	number_mca_channels	2048.000000	no:	gap_time	2048.000000	m-sec	trigger_peaking_time	2048.000000	m-sec	GAINDAC	400		HIGHGAIN	400		TAURC	400		RCTAU	400		RCTAUFRAC	400		livetime	13.014294	seconds	runtime	15.000232	seconds	input_count_rate	80431.410221	cps	output_count_rate	69782.785033	cps	triggers	1173264	seconds	events_in_run	1020480	seconds	channel	content		1.000	0
2.000	0
3.000	0
4.000	0
5.000	0
6.000	0
7.000	0
8.000	0
9.000	0
10.000	0
11.000	0
12.000	0
13.000	0
14.000	0
15.000	0
16.000	0
17.000	0
18.000	0
19.000	0
20.000	0
21.000	0
22.000	0
23.000	0
24.000	0
25.000	0
26.000	0
27.000	0
28.000	0
29.000	0
30.000	0
31.000	0
32.000	0
33.000	0
34.000	0
35.000	0
36.000	0
37.000	0
38.000	0
39.000	0
40.000	0
41.000	0
42.000	0
43.000	0
44.000	0
45.000	0
46.000	0
47.000	0
48.000	1
49.000	1
50.000	1
51.000	1
52.000	2
53.000	2
54.000	3
55.000	4
56.000	7
57.000	8
58.000	15
59.000	21
60.000	22
61.000	24
62.000	29
63.000	34
64.000	31
65.000	32
66.000	29
67.000	30
68.000	29
69.000	26
70.000	25
71.000	27
72.000	24
73.000	27
74.000	29
75.000	28
76.000	24
77.000	25
78.000	25
79.000	25
80.000	27
81.000	27
82.000	27
83.000	27
84.000	26
85.000	26
86.000	27
87.000	25
88.000	25
89.000	25
90.000	24
91.000	26
92.000	23
93.000	23
94.000	23
95.000	24
96.000	21
97.000	21
98.000	19
99.000	21
100.000	20
101.000	22
102.000	21
103.000	20
104.000	23
105.000	20
106.000	21
107.000	19
108.000	22
109.000	19
110.000	18
111.000	18
112.000	18
113.000	17
114.000	17
115.000	19
116.000	19
117.000	15
118.000	20
119.000	19
120.000	19
121.000	15
122.000	17
123.000	16
124.000	19
125.000	14
126.000	16
127.000	17
128.000	14
129.000	15
130.000	15
131.000	16
132.000	14
133.000	16
134.000	15
135.000	14
136.000	12
137.000	15
138.000	17
139.000	18
140.000	18
141.000	22
142.000	25
143.000	25
144.000	29
145.000	31
146.000	31
147.000	31
148.000	29
149.000	30
150.000	28
151.000	26
152.000	27
153.000	26
154.000	24
155.000	28
156.000	22
157.000	21
158.000	20
159.000	17
160.000	19
161.000	18
162.000	20
163.000	25
164.000	35
165.000	48
166.000	69
167.000	89
168.000	109
169.000	126
170.000	140
171.000	144
172.000	132
173.000	117
174.000	97
175.000	77
176.000	64
177.000	43
178.000	35
179.000	32
180.000	28
181.000	24
182.000	25
183.000	26
184.000	26
185.000	32
186.000	37
187.000	45
188.000	52
189.000	60
190.000	62
191.000	66
192.000	64
193.000	56
194.000	48
195.000	40
196.000	36
197.000	28
198.000	22
199.000	17
200.000	14
201.000	13
202.000	13
203.000	12
204.000	9
205.000	12
206.000	10
207.000	11
208.000	12
209.000	11
210.000	11
211.000	12
212.000	10
213.000	9
214.000	12
215.000	11
216.000	12
217.000	13
218.000	13
219.000	15
220.000	16
221.000	15
222.000	18
223.000	16
224.000	17
225.000	18
226.000	16
227.000	17
228.000	14
229.000	16
230.000	12
231.000	10
232.000	11
233.000	9
234.000	9
235.000	9
236.000	9
237.000	9
238.000	8
239.000	10
240.000	9
241.000	8
242.000	8
243.000	10
244.000	8
245.000	12
246.000	13
247.000	13
248.000	16
249.000	22
250.000	27
251.000	33
252.000	43
253.000	55
254.000	67
255.000	72
256.000	76
257.000	82
258.000	80
259.000	72
260.000	63
261.000	54
262.000	43
263.000	35
264.000	27
265.000	22
266.000	20
267.000	17
268.000	15
269.000	16
270.000	17
271.000	18
272.000	19
273.000	20
274.000	19
275.000	20
276.000	21
277.000	20
278.000	20
279.000	21
280.000	17
281.000	15
282.000	20
283.000	22
284.000	30
285.000	35
286.000	39
287.000	45
288.000	51
289.000	54
290.000	57
291.000	53
292.000	48
293.000	43
294.000	36
295.000	29
296.000	28
297.000	21
298.000	18
299.000	14
300.000	14
301.000	11
302.000	11
303.000	12
304.000	12
305.000	13
306.000	15
307.000	17
308.000	16
309.000	19
310.000	22
311.000	30
312.000	38
313.000	53
314.000	72
315.000	105
316.000	151
317.000	221
318.000	292
319.000	407
320.000	524
321.000	646
322.000	730
323.000	835
324.000	890
325.000	886
326.000	836
327.000	759
328.000	644
329.000	536
330.000	411
331.000	314
332.000	224
333.000	153
334.000	103
335.000	68
336.000	47
337.000	33
338.000	26
339.000	24
340.000	23
341.000	32
342.000	37
343.000	50
344.000	63
345.000	79
346.000	111
347.000	138
348.000	196
349.000	278
350.000	373
351.000	522
352.000	744
353.000	1042
354.000	1406
355.000	1863
356.000	2385
357.000	2951
358.000	3490
359.000	4006
360.000	4369
361.000	4510
362.000	4501
363.000	4227
364.000	3809
365.000	3317
366.000	2742
367.000	2154
368.000	1624
369.000	1160
370.000	785
371.000	523
372.000	335
373.000	212
374.000	128
375.000	77
376.000	52
377.000	46
378.000	41
379.000	45
380.000	51
381.000	62
382.000	88
383.000	115
384.000	158
385.000	203
386.000	272
387.000	339
388.000	420
389.000	507
390.000	558
391.000	630
392.000	649
393.000	670
394.000	648
395.000	596
396.000	540
397.000	456
398.000	374
399.000	298
400.000	224
401.000	167
402.000	110
403.000	79
404.000	53
405.000	37
406.000	22
407.000	18
408.000	11
409.000	11
410.000	10
411.000	8
412.000	9
413.000	7
414.000	7
415.000	8
416.000	7
417.000	8
418.000	8
419.000	9
420.000	9
421.000	10
422.000	8
423.000	9
424.000	12
425.000	12
426.000	16
427.000	24
428.000	30
429.000	45
430.000	59
431.000	99
432.000	119
433.000	175
434.000	220
435.000	283
436.000	347
437.000	417
438.000	482
439.000	522
440.000	563
441.000	586
442.000	571
443.000	530
444.000	486
445.000	421
446.000	359
447.000	294
448.000	231
449.000	186
450.000	146
451.000	119
452.000	95
453.000	86
454.000	72
455.000	62
456.000	54
457.000	54
458.000	48
459.000	43
460.000	38
461.000	31
462.000	29
463.000	28
464.000	23
465.000	24
466.000	26
467.000	32
468.000	30
469.000	34
470.000	37
471.000	38
472.000	46
473.000	56
474.000	62
475.000	65
476.000	71
477.000	84
478.000	89
479.000	101
480.000	108
481.000	113
482.000	116
483.000	110
484.000	116
485.000	103
486.000	93
487.000	83
488.000	76
489.000	61
490.000	52
491.000	41
492.000	36
493.000	33
494.000	28
495.000	23
496.000	24
497.000	23
498.000	20
499.000	23
500.000	19
501.000	20
502.000	23
503.000	23
504.000	25
505.000	27
506.000	28
507.000	26
508.000	29
509.000	27
510.000	29
511.000	30
512.000	33
513.000	33
514.000	37
515.000	36
516.000	35
517.000	38
518.000	36
519.000	37
520.000	41
521.000	43
522.000	44
523.000	45
524.000	47
525.000	49
526.000	54
527.000	58
528.000	53
529.000	56
530.000	54
531.000	53
532.000	50
533.000	45
534.000	47
535.000	44
536.000	38
537.000	34
538.000	34
539.000	31
540.000	30
541.000	28
542.000	29
543.000	31
544.000	27
545.000	29
546.000	30
547.000	29
548.000	28
549.000	30
550.000	27
551.000	27
552.000	32
553.000	32
554.000	32
555.000	33
556.000	33
557.000	29
558.000	37
559.000	33
560.000	38
561.000	45
562.000	48
563.000	55
564.000	59
565.000	75
566.000	95
567.000	120
568.000	148
569.000	185
570.000	216
571.000	248
572.000	289
573.000	323
574.000	334
575.000	364
576.000	365
577.000	363
578.000	350
579.000	319
580.000	297
581.000	274
582.000	228
583.000	187
584.000	163
585.000	129
586.000	107
587.000	86
588.000	72
589.000	65
590.000	56
591.000	51
592.000	46
593.000	50
594.000	48
595.000	45
596.000	48
597.000	48
598.000	51
599.000	52
600.000	57
601.000	58
602.000	62
603.000	65
604.000	74
605.000	94
606.000	106
607.000	141
608.000	185
609.000	252
610.000	353
611.000	519
612.000	733
613.000	1034
614.000	1446
615.000	1974
616.000	2590
617.000	3333
618.000	4195
619.000	5126
620.000	6077
621.000	6970
622.000	7948
623.000	8497
624.000	9015
625.000	9229
626.000	9141
627.000	8869
628.000	8265
629.000	7523
630.000	6616
631.000	5696
632.000	4762
633.000	3863
634.000	3002
635.000	2323
636.000	1733
637.000	1273
638.000	900
639.000	641
640.000	456
641.000	308
642.000	231
643.000	165
644.000	120
645.000	101
646.000	89
647.000	75
648.000	73
649.000	68
650.000	68
651.000	67
652.000	66
653.000	62
654.000	67
655.000	65
656.000	63
657.000	65
658.000	67
659.000	70
660.000	68
661.000	69
662.000	68
663.000	73
664.000	74
665.000	77
666.000	78
667.000	87
668.000	89
669.000	87
670.000	102
671.000	110
672.000	129
673.000	146
674.000	169
675.000	201
676.000	245
677.000	302
678.000	379
679.000	467
680.000	551
681.000	688
682.000	822
683.000	956
684.000	1097
685.000	1223
686.000	1359
687.000	1423
688.000	1513
689.000	1531
690.000	1504
691.000	1429
692.000	1382
693.000	1259
694.000	1151
695.000	969
696.000	844
697.000	704
698.000	568
699.000	464
700.000	366
701.000	291
702.000	217
703.000	166
704.000	134
705.000	111
706.000	94
707.000	79
708.000	72
709.000	68
710.000	65
711.000	59
712.000	63
713.000	66
714.000	61
715.000	67
716.000	65
717.000	65
718.000	70
719.000	70
720.000	74
721.000	77
722.000	75
723.000	78
724.000	83
725.000	87
726.000	84
727.000	88
728.000	100
729.000	88
730.000	94
731.000	85
732.000	89
733.000	86
734.000	85
735.000	85
736.000	77
737.000	77
738.000	78
739.000	74
740.000	71
741.000	72
742.000	69
743.000	69
744.000	68
745.000	65
746.000	69
747.000	68
748.000	72
749.000	72
750.000	74
751.000	74
752.000	66
753.000	74
754.000	69
755.000	67
756.000	72
757.000	74
758.000	73
759.000	72
760.000	74
761.000	76
762.000	77
763.000	79
764.000	75
765.000	78
766.000	80
767.000	83
768.000	85
769.000	77
770.000	85
771.000	86
772.000	90
773.000	94
774.000	95
775.000	93
776.000	98
777.000	101
778.000	100
779.000	102
780.000	109
781.000	115
782.000	120
783.000	120
784.000	119
785.000	127
786.000	126
787.000	139
788.000	137
789.000	136
790.000	149
791.000	141
792.000	147
793.000	144
794.000	147
795.000	153
796.000	148
797.000	149
798.000	153
799.000	150
800.000	153
801.000	151
802.000	154
803.000	156
804.000	164
805.000	162
806.000	164
807.000	163
808.000	186
809.000	192
810.000	205
811.000	207
812.000	227
813.000	234
814.000	255
815.000	270
816.000	278
817.000	275
818.000	276
819.000	296
820.000	294
821.000	287
822.000	275
823.000	262
824.000	254
825.000	231
826.000	225
827.000	205
828.000	194
829.000	179
830.000	171
831.000	163
832.000	148
833.000	145
834.000	155
835.000	152
836.000	148
837.000	151
838.000	152
839.000	158
840.000	168
841.000	176
842.000	180
843.000	176
844.000	180
845.000	163
846.000	169
847.000	156
848.000	153
849.000	147
850.000	147
851.000	143
852.000	137
853.000	133
854.000	131
855.000	124
856.000	124
857.000	124
858.000	117
859.000	122
860.000	119
861.000	122
862.000	126
863.000	131
864.000	119
865.000	122
866.000	118
867.000	122
868.000	119
869.000	123
870.000	123
871.000	123
872.000	121
873.000	126
874.000	125
875.000	126
876.000	129
877.000	124
878.000	122
879.000	128
880.000	124
881.000	126
882.000	123
883.000	124
884.000	130
885.000	132
886.000	137
887.000	136
888.000	133
889.000	144
890.000	136
891.000	139
892.000	142
893.000	143
894.000	151
895.000	151
896.000	156
897.000	164
898.000	157
899.000	160
900.000	176
901.000	167
902.000	171
903.000	172
904.000	176
905.000	175
906.000	183
907.000	183
908.000	191
909.000	188
910.000	197
911.000	185
912.000	179
913.000	191
914.000	191
915.000	178
916.000	177
917.000	189
918.000	192
919.000	192
920.000	197
921.000	199
922.000	195
923.000	193
924.000	199
925.000	197
926.000	202
927.000	210
928.000	211
929.000	211
930.000	207
931.000	217
932.000	224
933.000	225
934.000	232
935.000	232
936.000	246
937.000	250
938.000	261
939.000	271
940.000	262
941.000	271
942.000	281
943.000	278
944.000	283
945.000	272
946.000	278
947.000	261
948.000	251
949.000	257
950.000	240
951.000	234
952.000	233
953.000	218
954.000	209
955.000	203
956.000	209
957.000	191
958.000	183
959.000	188
960.000	182
961.000	189
962.000	185
963.000	181
964.000	191
965.000	189
966.000	186
967.000	192
968.000	194
969.000	194
970.000	198
971.000	197
972.000	193
973.000	194
974.000	187
975.000	190
976.000	186
977.000	191
978.000	177
979.000	174
980.000	169
981.000	176
982.000	168
983.000	163
984.000	160
985.000	156
986.000	158
987.000	156
988.000	155
989.000	159
990.000	159
991.000	154
992.000	151
993.000	147
994.000	146
995.000	150
996.000	151
997.000	151
998.000	144
999.000	149
1000.000	148
1001.000	141
1002.000	142
1003.000	139
1004.000	147
1005.000	150
1006.000	143
1007.000	147
1008.000	151
1009.000	149
1010.000	144
1011.000	154
1012.000	144
1013.000	150
1014.000	149
1015.000	151
1016.000	144
1017.000	151
1018.000	147
1019.000	145
1020.000	149
1021.000	153
1022.000	156
1023.000	149
1024.000	153
1025.000	155
1026.000	150
1027.000	160
1028.000	151
1029.000	153
1030.000	153
1031.000	148
1032.000	160
1033.000	151
1034.000	156
1035.000	159
1036.000	158
1037.000	153
1038.000	151
1039.000	155
1040.000	156
1041.000	154
1042.000	157
1043.000	157
1044.000	167
1045.000	164
1046.000	154
1047.000	155
1048.000	158
1049.000	157
1050.000	163
1051.000	165
1052.000	161
1053.000	164
1054.000	170
1055.000	161
1056.000	164
1057.000	163
1058.000	167
1059.000	168
1060.000	174
1061.000	169
1062.000	163
1063.000	172
1064.000	173
1065.000	171
1066.000	168
1067.000	171
1068.000	169
1069.000	177
1070.000	164
1071.000	169
1072.000	169
1073.000	174
1074.000	173
1075.000	166
1076.000	169
1077.000	169
1078.000	168
1079.000	168
1080.000	170
1081.000	163
1082.000	171
1083.000	171
1084.000	172
1085.000	170
1086.000	172
1087.000	172
1088.000	179
1089.000	175
1090.000	172
1091.000	176
1092.000	174
1093.000	179
1094.000	185
1095.000	184
1096.000	178
1097.000	186
1098.000	187
1099.000	190
1100.000	186
1101.000	186
1102.000	181
1103.000	190
1104.000	188
1105.000	181
1106.000	182
1107.000	180
1108.000	182
1109.000	183
1110.000	174
1111.000	180
1112.000	176
1113.000	172
1114.000	175
1115.000	180
1116.000	175
1117.000	177
1118.000	167
1119.000	177
1120.000	168
1121.000	177
1122.000	173
1123.000	171
1124.000	174
1125.000	176
1126.000	168
1127.000	179
1128.000	168
1129.000	178
1130.000	170
1131.000	175
1132.000	163
1133.000	177
1134.000	179
1135.000	174
1136.000	170
1137.000	174
1138.000	174
1139.000	172
1140.000	170
1141.000	178
1142.000	179
1143.000	169
1144.000	174
1145.000	178
1146.000	181
1147.000	181
1148.000	178
1149.000	178
1150.000	181
1151.000	183
1152.000	190
1153.000	195
1154.000	187
1155.000	187
1156.000	200
1157.000	188
1158.000	192
1159.000	197
1160.000	208
1161.000	207
1162.000	192
1163.000	205
1164.000	198
1165.000	200
1166.000	191
1167.000	202
1168.000	188
1169.000	197
1170.000	195
1171.000	194
1172.000	192
1173.000	187
1174.000	178
1175.000	183
1176.000	177
1177.000	173
1178.000	169
1179.000	183
1180.000	178
1181.000	172
1182.000	177
1183.000	171
1184.000	174
1185.000	177
1186.000	171
1187.000	173
1188.000	171
1189.000	170
1190.000	173
1191.000	175
1192.000	172
1193.000	181
1194.000	174
1195.000	174
1196.000	175
1197.000	169
1198.000	169
1199.000	177
1200.000	173
1201.000	173
1202.000	174
1203.000	173
1204.000	169
1205.000	184
1206.000	187
1207.000	185
1208.000	178
1209.000	175
1210.000	184
1211.000	182
1212.000	186
1213.000	181
1214.000	174
1215.000	177
1216.000	185
1217.000	179
1218.000	183
1219.000	172
1220.000	178
1221.000	184
1222.000	181
1223.000	185
1224.000	183
1225.000	184
1226.000	183
1227.000	181
1228.000	180
1229.000	185
1230.000	180
1231.000	191
1232.000	193
1233.000	185
1234.000	187
1235.000	186
1236.000	182
1237.000	187
1238.000	187
1239.000	184
1240.000	183
1241.000	189
1242.000	184
1243.000	191
1244.000	194
1245.000	181
1246.000	195
1247.000	189
1248.000	189
1249.000	188
1250.000	192
1251.000	190
1252.000	191
1253.000	189
1254.000	193
1255.000	188
1256.000	191
1257.000	194
1258.000	194
1259.000	191
1260.000	198
1261.000	191
1262.000	189
1263.000	193
1264.000	195
1265.000	189
1266.000	185
1267.000	200
1268.000	191
1269.000	196
1270.000	192
1271.000	191
1272.000	192
1273.000	190
1274.000	191
1275.000	200
1276.000	189
1277.000	187
1278.000	190
1279.000	195
1280.000	194
1281.000	195
1282.000	198
1283.000	199
1284.000	201
1285.000	192
1286.000	195
1287.000	204
1288.000	202
1289.000	215
1290.000	206
1291.000	216
1292.000	219
1293.000	223
1294.000	235
1295.000	230
1296.000	238
1297.000	236
1298.000	243
1299.000	254
1300.000	257
1301.000	253
1302.000	259
1303.000	269
1304.000	263
1305.000	260
1306.000	256
1307.000	261
1308.000	254
1309.000	259
1310.000	252
1311.000	241
1312.000	241
1313.000	248
1314.000	231
1315.000	232
1316.000	230
1317.000	216
1318.000	209
1319.000	202
1320.000	211
1321.000	205
1322.000	203
1323.000	209
1324.000	195
1325.000	202
1326.000	195
1327.000	201
1328.000	201
1329.000	196
1330.000	195
1331.000	199
1332.000	200
1333.000	193
1334.000	203
1335.000	194
1336.000	189
1337.000	199
1338.000	192
1339.000	200
1340.000	202
1341.000	196
1342.000	195
1343.000	199
1344.000	200
1345.000	193
1346.000	193
1347.000	194
1348.000	196
1349.000	196
1350.000	198
1351.000	203
1352.000	194
1353.000	204
1354.000	204
1355.000	200
1356.000	204
1357.000	203
1358.000	210
1359.000	229
1360.000	227
1361.000	232
1362.000	238
1363.000	254
1364.000	263
1365.000	272
1366.000	289
1367.000	316
1368.000	332
1369.000	353
1370.000	369
1371.000	399
1372.000	422
1373.000	429
1374.000	454
1375.000	478
1376.000	487
1377.000	503
1378.000	499
1379.000	507
1380.000	522
1381.000	508
1382.000	491
1383.000	487
1384.000	479
1385.000	472
1386.000	448
1387.000	438
1388.000	400
1389.000	374
1390.000	353
1391.000	338
1392.000	312
1393.000	301
1394.000	272
1395.000	266
1396.000	246
1397.000	238
1398.000	234
1399.000	217
1400.000	213
1401.000	213
1402.000	210
1403.000	203
1404.000	200
1405.000	194
1406.000	192
1407.000	193
1408.000	194
1409.000	189
1410.000	191
1411.000	191
1412.000	194
1413.000	194
1414.000	195
1415.000	198
1416.000	198
1417.000	186
1418.000	194
1419.000	192
1420.000	195
1421.000	195
1422.000	193
1423.000	194
1424.000	188
1425.000	195
1426.000	194
1427.000	197
1428.000	198
1429.000	202
1430.000	198
1431.000	201
1432.000	197
1433.000	194
1434.000	206
1435.000	192
1436.000	201
1437.000	207
1438.000	206
1439.000	200
1440.000	207
1441.000	213
1442.000	209
1443.000	206
1444.000	210
1445.000	207
1446.000	220
1447.000	212
1448.000	223
1449.000	216
1450.000	210
1451.000	222
1452.000	222
1453.000	223
1454.000	230
1455.000	227
1456.000	224
1457.000	225
1458.000	230
1459.000	240
1460.000	236
1461.000	229
1462.000	229
1463.000	229
1464.000	229
1465.000	222
1466.000	218
1467.000	209
1468.000	217
1469.000	208
1470.000	211
1471.000	221
1472.000	208
1473.000	209
1474.000	212
1475.000	208
1476.000	201
1477.000	205
1478.000	201
1479.000	208
1480.000	200
1481.000	210
1482.000	204
1483.000	205
1484.000	202
1485.000	213
1486.000	210
1487.000	209
1488.000	200
1489.000	204
1490.000	206
1491.000	204
1492.000	208
1493.000	206
1494.000	211
1495.000	208
1496.000	210
1497.000	207
1498.000	204
1499.000	213
1500.000	206
1501.000	212
1502.000	208
1503.000	217
1504.000	214
1505.000	210
1506.000	205
1507.000	211
1508.000	224
1509.000	218
1510.000	226
1511.000	218
1512.000	223
1513.000	236
1514.000	236
1515.000	234
1516.000	244
1517.000	255
1518.000	263
1519.000	258
1520.000	271
1521.000	284
1522.000	308
1523.000	303
1524.000	326
1525.000	332
1526.000	345
1527.000	370
1528.000	392
1529.000	387
1530.000	409
1531.000	427
1532.000	433
1533.000	448
1534.000	469
1535.000	474
1536.000	464
1537.000	483
1538.000	474
1539.000	486
1540.000	475
1541.000	468
1542.000	457
1543.000	443
1544.000	433
1545.000	428
1546.000	412
1547.000	408
1548.000	391
1549.000	384
1550.000	355
1551.000	353
1552.000	347
1553.000	321
1554.000	334
1555.000	312
1556.000	310
1557.000	307
1558.000	299
1559.000	298
1560.000	310
1561.000	303
1562.000	314
1563.000	308
1564.000	322
1565.000	324
1566.000	325
1567.000	327
1568.000	339
1569.000	350
1570.000	341
1571.000	346
1572.000	363
1573.000	368
1574.000	388
1575.000	399
1576.000	392
1577.000	413
1578.000	425
1579.000	436
1580.000	442
1581.000	463
1582.000	472
1583.000	477
1584.000	497
1585.000	503
1586.000	519
1587.000	541
1588.000	546
1589.000	563
1590.000	580
1591.000	592
1592.000	605
1593.000	619
1594.000	643
1595.000	655
1596.000	654
1597.000	675
1598.000	680
1599.000	690
1600.000	709
1601.000	710
1602.000	729
1603.000	731
1604.000	760
1605.000	762
1606.000	735
1607.000	751
1608.000	750
1609.000	750
1610.000	758
1611.000	743
1612.000	752
1613.000	747
1614.000	752
1615.000	740
1616.000	731
1617.000	721
1618.000	727
1619.000	716
1620.000	688
1621.000	698
1622.000	673
1623.000	657
1624.000	635
1625.000	628
1626.000	613
1627.000	596
1628.000	578
1629.000	558
1630.000	546
1631.000	529
1632.000	513
1633.000	498
1634.000	480
1635.000	472
1636.000	451
1637.000	438
1638.000	441
1639.000	418
1640.000	406
1641.000	395
1642.000	375
1643.000	361
1644.000	349
1645.000	342
1646.000	338
1647.000	330
1648.000	316
1649.000	313
1650.000	309
1651.000	292
1652.000	287
1653.000	291
1654.000	268
1655.000	282
1656.000	275
1657.000	260
1658.000	254
1659.000	248
1660.000	252
1661.000	241
1662.000	238
1663.000	230
1664.000	234
1665.000	230
1666.000	223
1667.000	236
1668.000	227
1669.000	226
1670.000	227
1671.000	223
1672.000	218
1673.000	221
1674.000	218
1675.000	223
1676.000	234
1677.000	229
1678.000	230
1679.000	244
1680.000	253
1681.000	263
1682.000	280
1683.000	295
1684.000	306
1685.000	327
1686.000	338
1687.000	356
1688.000	372
1689.000	391
1690.000	427
1691.000	437
1692.000	464
1693.000	492
1694.000	508
1695.000	527
1696.000	550
1697.000	561
1698.000	563
1699.000	597
1700.000	584
1701.000	581
1702.000	598
1703.000	596
1704.000	589
1705.000	577
1706.000	569
1707.000	559
1708.000	520
1709.000	511
1710.000	486
1711.000	468
1712.000	428
1713.000	418
1714.000	374
1715.000	367
1716.000	344
1717.000	322
1718.000	314
1719.000	291
1720.000	285
1721.000	268
1722.000	248
1723.000	231
1724.000	228
1725.000	223
1726.000	225
1727.000	215
1728.000	207
1729.000	203
1730.000	195
1731.000	192
1732.000	192
1733.000	190
1734.000	181
1735.000	178
1736.000	185
1737.000	175
1738.000	174
1739.000	177
1740.000	182
1741.000	184
1742.000	180
1743.000	179
1744.000	175
1745.000	175
1746.000	179
1747.000	172
1748.000	182
1749.000	177
1750.000	183
1751.000	182
1752.000	174
1753.000	186
1754.000	180
1755.000	181
1756.000	187
1757.000	189
1758.000	184
1759.000	186
1760.000	185
1761.000	186
1762.000	183
1763.000	191
1764.000	193
1765.000	198
1766.000	194
1767.000	190
1768.000	205
1769.000	203
1770.000	201
1771.000	205
1772.000	201
1773.000	207
1774.000	211
1775.000	209
1776.000	210
1777.000	215
1778.000	211
1779.000	224
1780.000	225
1781.000	227
1782.000	223
1783.000	222
1784.000	227
1785.000	227
1786.000	231
1787.000	227
1788.000	236
1789.000	230
1790.000	226
1791.000	234
1792.000	237
1793.000	225
1794.000	240
1795.000	234
1796.000	233
1797.000	235
1798.000	231
1799.000	229
1800.000	235
1801.000	229
1802.000	228
1803.000	224
1804.000	234
1805.000	221
1806.000	224
1807.000	227
1808.000	227
1809.000	222
1810.000	221
1811.000	220
1812.000	212
1813.000	209
1814.000	208
1815.000	207
1816.000	203
1817.000	204
1818.000	201
1819.000	201
1820.000	192
1821.000	178
1822.000	188
1823.000	177
1824.000	169
1825.000	173
1826.000	173
1827.000	171
1828.000	163
1829.000	162
1830.000	166
1831.000	150
1832.000	154
1833.000	151
1834.000	151
1835.000	144
1836.000	139
1837.000	142
1838.000	142
1839.000	144
1840.000	138
1841.000	134
1842.000	141
1843.000	129
1844.000	123
1845.000	125
1846.000	122
1847.000	127
1848.000	120
1849.000	125
1850.000	116
1851.000	115
1852.000	113
1853.000	114
1854.000	112
1855.000	111
1856.000	107
1857.000	111
1858.000	103
1859.000	107
1860.000	103
1861.000	109
1862.000	100
1863.000	99
1864.000	93
1865.000	99
1866.000	99
1867.000	101
1868.000	100
1869.000	91
1870.000	102
1871.000	93
1872.000	89
1873.000	92
1874.000	93
1875.000	92
1876.000	91
1877.000	96
1878.000	90
1879.000	89
1880.000	85
1881.000	93
1882.000	89
1883.000	87
1884.000	90
1885.000	83
1886.000	92
1887.000	85
1888.000	86
1889.000	91
1890.000	88
1891.000	95
1892.000	89
1893.000	93
1894.000	96
1895.000	101
1896.000	98
1897.000	100
1898.000	100
1899.000	112
1900.000	113
1901.000	119
1902.000	120
1903.000	118
1904.000	125
1905.000	124
1906.000	133
1907.000	137
1908.000	128
1909.000	138
1910.000	137
1911.000	144
1912.000	139
1913.000	138
1914.000	136
1915.000	128
1916.000	133
1917.000	126
1918.000	125
1919.000	123
1920.000	122
1921.000	114
1922.000	107
1923.000	101
1924.000	101
1925.000	100
1926.000	100
1927.000	91
1928.000	88
1929.000	83
1930.000	84
1931.000	84
1932.000	85
1933.000	82
1934.000	81
1935.000	84
1936.000	83
1937.000	78
1938.000	77
1939.000	84
1940.000	81
1941.000	76
1942.000	79
1943.000	82
1944.000	77
1945.000	78
1946.000	79
1947.000	79
1948.000	79
1949.000	75
1950.000	77
1951.000	75
1952.000	73
1953.000	72
1954.000	69
1955.000	73
1956.000	71
1957.000	64
1958.000	70
1959.000	64
1960.000	68
1961.000	64
1962.000	67
1963.000	66
1964.000	64
1965.000	63
1966.000	63
1967.000	63
1968.000	59
1969.000	59
1970.000	61
1971.000	61
1972.000	57
1973.000	64
1974.000	59
1975.000	56
1976.000	62
1977.000	66
1978.000	62
1979.000	65
1980.000	60
1981.000	59
1982.000	61
1983.000	59
1984.000	60
1985.000	56
1986.000	60
1987.000	60
1988.000	60
1989.000	62
1990.000	55
1991.000	58
1992.000	61
1993.000	61
1994.000	62
1995.000	57
1996.000	57
1997.000	56
1998.000	60
1999.000	59
2000.000	59
2001.000	56
2002.000	58
2003.000	60
2004.000	61
2005.000	63
2006.000	62
2007.000	61
2008.000	57
2009.000	57
2010.000	60
2011.000	60
2012.000	55
2013.000	61
2014.000	57
2015.000	57
2016.000	60
2017.000	62
2018.000	59
2019.000	53
2020.000	61
2021.000	61
2022.000	56
2023.000	55
2024.000	56
2025.000	53
2026.000	60
2027.000	61
2028.000	58
2029.000	55
2030.000	58
2031.000	57
2032.000	55
2033.000	54
2034.000	55
2035.000	54
2036.000	57
2037.000	57
2038.000	59
2039.000	54
2040.000	55
2041.000	58
2042.000	52
2043.000	51
2044.000	55
2045.000	53
2046.000	56
2047.000	55
2048.000	0
