Date:	17-Sep-20		Time:	11:47 PM		Version no:	0.00		Project name:	55		Sample name:	222		Section name:	section		Position	0.000000	mm	E0	0.000000	keV	E1	1.000000	keV/channel	sample surface	2.000000	cm	Tube anode:	Mo		Tube voltage:	30	kV	Tube current:	30	mA	gain	15		std. database			resultfile	result		matrix element	11		sample thickness	1.000000		air passage	0.560000	cm	comments	not in position		peaking_time	0.300000	m-sec	trigger_threshold	40.000000	V	mca_bin_width	2.000000	no:	number_mca_channels	2048.000000	no:	gap_time	2048.000000	m-sec	trigger_peaking_time	2048.000000	m-sec	GAINDAC	400		HIGHGAIN	400		TAURC	400		RCTAU	400		RCTAUFRAC	400		livetime	13.014294	seconds	runtime	15.000232	seconds	input_count_rate	80431.410221	cps	output_count_rate	69782.785033	cps	triggers	1173264	seconds	events_in_run	1020480	seconds	channel	content		1.000	0
2.000	0
3.000	0
4.000	0
5.000	0
6.000	0
7.000	0
8.000	0
9.000	0
10.000	0
11.000	0
12.000	0
13.000	0
14.000	0
15.000	0
16.000	0
17.000	0
18.000	0
19.000	0
20.000	0
21.000	0
22.000	0
23.000	0
24.000	0
25.000	0
26.000	0
27.000	0
28.000	0
29.000	0
30.000	0
31.000	0
32.000	0
33.000	0
34.000	0
35.000	0
36.000	0
37.000	0
38.000	1
39.000	0
40.000	0
41.000	0
42.000	0
43.000	0
44.000	0
45.000	0
46.000	0
47.000	0
48.000	1
49.000	0
50.000	1
51.000	1
52.000	2
53.000	2
54.000	4
55.000	4
56.000	6
57.000	10
58.000	12
59.000	19
60.000	24
61.000	25
62.000	27
63.000	27
64.000	28
65.000	28
66.000	27
67.000	26
68.000	26
69.000	28
70.000	24
71.000	25
72.000	23
73.000	26
74.000	26
75.000	22
76.000	25
77.000	25
78.000	26
79.000	23
80.000	24
81.000	25
82.000	25
83.000	22
84.000	25
85.000	26
86.000	26
87.000	27
88.000	24
89.000	25
90.000	24
91.000	23
92.000	20
93.000	21
94.000	21
95.000	20
96.000	22
97.000	21
98.000	19
99.000	18
100.000	22
101.000	18
102.000	18
103.000	18
104.000	20
105.000	18
106.000	20
107.000	17
108.000	21
109.000	17
110.000	16
111.000	17
112.000	19
113.000	16
114.000	16
115.000	18
116.000	17
117.000	18
118.000	18
119.000	16
120.000	14
121.000	17
122.000	17
123.000	16
124.000	15
125.000	16
126.000	15
127.000	14
128.000	14
129.000	15
130.000	17
131.000	14
132.000	13
133.000	16
134.000	13
135.000	14
136.000	14
137.000	16
138.000	16
139.000	15
140.000	18
141.000	21
142.000	21
143.000	24
144.000	25
145.000	31
146.000	30
147.000	29
148.000	24
149.000	26
150.000	23
151.000	23
152.000	22
153.000	21
154.000	20
155.000	23
156.000	18
157.000	18
158.000	18
159.000	14
160.000	15
161.000	16
162.000	15
163.000	20
164.000	30
165.000	42
166.000	54
167.000	69
168.000	86
169.000	98
170.000	104
171.000	105
172.000	105
173.000	91
174.000	73
175.000	64
176.000	48
177.000	40
178.000	34
179.000	34
180.000	29
181.000	28
182.000	30
183.000	37
184.000	40
185.000	53
186.000	69
187.000	80
188.000	102
189.000	127
190.000	126
191.000	133
192.000	132
193.000	113
194.000	99
195.000	79
196.000	63
197.000	45
198.000	35
199.000	25
200.000	21
201.000	14
202.000	13
203.000	15
204.000	15
205.000	12
206.000	13
207.000	12
208.000	14
209.000	13
210.000	12
211.000	12
212.000	12
213.000	15
214.000	15
215.000	14
216.000	16
217.000	17
218.000	21
219.000	24
220.000	28
221.000	31
222.000	31
223.000	33
224.000	33
225.000	31
226.000	30
227.000	28
228.000	21
229.000	20
230.000	18
231.000	13
232.000	15
233.000	13
234.000	12
235.000	11
236.000	10
237.000	11
238.000	11
239.000	10
240.000	10
241.000	11
242.000	11
243.000	12
244.000	10
245.000	13
246.000	13
247.000	16
248.000	23
249.000	28
250.000	38
251.000	53
252.000	67
253.000	90
254.000	103
255.000	118
256.000	129
257.000	134
258.000	133
259.000	114
260.000	108
261.000	84
262.000	73
263.000	54
264.000	42
265.000	29
266.000	24
267.000	21
268.000	20
269.000	21
270.000	19
271.000	22
272.000	22
273.000	22
274.000	24
275.000	24
276.000	26
277.000	24
278.000	25
279.000	23
280.000	24
281.000	25
282.000	28
283.000	31
284.000	40
285.000	45
286.000	56
287.000	62
288.000	70
289.000	70
290.000	77
291.000	69
292.000	66
293.000	61
294.000	53
295.000	45
296.000	33
297.000	28
298.000	22
299.000	20
300.000	18
301.000	18
302.000	12
303.000	16
304.000	18
305.000	16
306.000	18
307.000	19
308.000	24
309.000	22
310.000	25
311.000	32
312.000	37
313.000	45
314.000	62
315.000	77
316.000	111
317.000	159
318.000	208
319.000	276
320.000	346
321.000	420
322.000	487
323.000	534
324.000	577
325.000	573
326.000	537
327.000	493
328.000	425
329.000	341
330.000	282
331.000	218
332.000	155
333.000	105
334.000	73
335.000	54
336.000	39
337.000	31
338.000	28
339.000	30
340.000	30
341.000	35
342.000	44
343.000	56
344.000	77
345.000	100
346.000	144
347.000	207
348.000	299
349.000	448
350.000	666
351.000	1011
352.000	1540
353.000	2190
354.000	3103
355.000	4199
356.000	5483
357.000	6807
358.000	8098
359.000	9265
360.000	10145
361.000	10587
362.000	10482
363.000	9934
364.000	8977
365.000	7778
366.000	6417
367.000	5082
368.000	3769
369.000	2692
370.000	1841
371.000	1208
372.000	792
373.000	485
374.000	297
375.000	179
376.000	130
377.000	101
378.000	87
379.000	97
380.000	123
381.000	154
382.000	204
383.000	263
384.000	357
385.000	474
386.000	649
387.000	827
388.000	1014
389.000	1202
390.000	1390
391.000	1522
392.000	1619
393.000	1634
394.000	1575
395.000	1495
396.000	1331
397.000	1113
398.000	920
399.000	726
400.000	550
401.000	391
402.000	274
403.000	181
404.000	122
405.000	76
406.000	49
407.000	31
408.000	19
409.000	16
410.000	13
411.000	11
412.000	10
413.000	9
414.000	9
415.000	10
416.000	7
417.000	8
418.000	9
419.000	10
420.000	6
421.000	9
422.000	10
423.000	10
424.000	13
425.000	12
426.000	18
427.000	21
428.000	25
429.000	35
430.000	48
431.000	66
432.000	92
433.000	116
434.000	164
435.000	199
436.000	245
437.000	288
438.000	324
439.000	357
440.000	387
441.000	383
442.000	380
443.000	350
444.000	322
445.000	293
446.000	247
447.000	201
448.000	174
449.000	130
450.000	108
451.000	93
452.000	73
453.000	66
454.000	66
455.000	56
456.000	51
457.000	49
458.000	45
459.000	42
460.000	36
461.000	36
462.000	28
463.000	26
464.000	26
465.000	27
466.000	24
467.000	27
468.000	29
469.000	27
470.000	31
471.000	37
472.000	41
473.000	42
474.000	46
475.000	56
476.000	62
477.000	63
478.000	73
479.000	82
480.000	84
481.000	87
482.000	86
483.000	94
484.000	93
485.000	79
486.000	77
487.000	71
488.000	59
489.000	57
490.000	46
491.000	40
492.000	34
493.000	29
494.000	25
495.000	23
496.000	23
497.000	22
498.000	25
499.000	25
500.000	23
501.000	23
502.000	23
503.000	25
504.000	26
505.000	26
506.000	25
507.000	29
508.000	30
509.000	28
510.000	33
511.000	32
512.000	32
513.000	33
514.000	31
515.000	33
516.000	35
517.000	36
518.000	37
519.000	35
520.000	37
521.000	40
522.000	48
523.000	49
524.000	52
525.000	52
526.000	56
527.000	60
528.000	62
529.000	64
530.000	66
531.000	63
532.000	56
533.000	52
534.000	44
535.000	43
536.000	45
537.000	38
538.000	38
539.000	33
540.000	34
541.000	31
542.000	27
543.000	30
544.000	30
545.000	27
546.000	26
547.000	29
548.000	31
549.000	30
550.000	27
551.000	29
552.000	29
553.000	33
554.000	31
555.000	31
556.000	30
557.000	33
558.000	33
559.000	32
560.000	35
561.000	37
562.000	43
563.000	48
564.000	52
565.000	53
566.000	67
567.000	69
568.000	83
569.000	97
570.000	116
571.000	122
572.000	148
573.000	166
574.000	172
575.000	178
576.000	180
577.000	181
578.000	169
579.000	162
580.000	151
581.000	133
582.000	114
583.000	104
584.000	88
585.000	81
586.000	66
587.000	60
588.000	54
589.000	47
590.000	44
591.000	46
592.000	40
593.000	43
594.000	44
595.000	44
596.000	46
597.000	45
598.000	51
599.000	50
600.000	52
601.000	61
602.000	60
603.000	62
604.000	72
605.000	85
606.000	112
607.000	144
608.000	189
609.000	261
610.000	374
611.000	529
612.000	771
613.000	1071
614.000	1503
615.000	2043
616.000	2664
617.000	3485
618.000	4369
619.000	5352
620.000	6329
621.000	7277
622.000	8122
623.000	8886
624.000	9383
625.000	9545
626.000	9552
627.000	9169
628.000	8567
629.000	7774
630.000	6897
631.000	5901
632.000	4926
633.000	3951
634.000	3118
635.000	2355
636.000	1760
637.000	1312
638.000	916
639.000	636
640.000	441
641.000	310
642.000	218
643.000	166
644.000	132
645.000	105
646.000	87
647.000	80
648.000	69
649.000	66
650.000	65
651.000	66
652.000	65
653.000	67
654.000	67
655.000	70
656.000	74
657.000	71
658.000	73
659.000	74
660.000	74
661.000	79
662.000	79
663.000	79
664.000	81
665.000	85
666.000	90
667.000	89
668.000	97
669.000	108
670.000	111
671.000	119
672.000	133
673.000	155
674.000	188
675.000	209
676.000	267
677.000	318
678.000	381
679.000	476
680.000	596
681.000	698
682.000	833
683.000	984
684.000	1109
685.000	1260
686.000	1371
687.000	1470
688.000	1523
689.000	1563
690.000	1516
691.000	1453
692.000	1390
693.000	1286
694.000	1135
695.000	1003
696.000	848
697.000	707
698.000	581
699.000	463
700.000	372
701.000	293
702.000	220
703.000	175
704.000	133
705.000	112
706.000	90
707.000	80
708.000	75
709.000	65
710.000	65
711.000	62
712.000	66
713.000	62
714.000	64
715.000	68
716.000	69
717.000	76
718.000	72
719.000	79
720.000	80
721.000	84
722.000	79
723.000	93
724.000	93
725.000	95
726.000	95
727.000	99
728.000	102
729.000	101
730.000	99
731.000	100
732.000	95
733.000	94
734.000	92
735.000	92
736.000	84
737.000	80
738.000	80
739.000	80
740.000	74
741.000	72
742.000	74
743.000	72
744.000	67
745.000	70
746.000	78
747.000	69
748.000	69
749.000	73
750.000	73
751.000	72
752.000	71
753.000	73
754.000	74
755.000	75
756.000	74
757.000	72
758.000	72
759.000	76
760.000	76
761.000	78
762.000	75
763.000	76
764.000	73
765.000	77
766.000	79
767.000	80
768.000	87
769.000	85
770.000	86
771.000	88
772.000	87
773.000	91
774.000	93
775.000	99
776.000	102
777.000	104
778.000	116
779.000	115
780.000	118
781.000	132
782.000	128
783.000	135
784.000	139
785.000	141
786.000	145
787.000	145
788.000	154
789.000	145
790.000	156
791.000	154
792.000	148
793.000	149
794.000	149
795.000	157
796.000	153
797.000	152
798.000	146
799.000	153
800.000	157
801.000	155
802.000	160
803.000	159
804.000	163
805.000	167
806.000	172
807.000	176
808.000	182
809.000	186
810.000	208
811.000	213
812.000	224
813.000	241
814.000	266
815.000	268
816.000	282
817.000	291
818.000	298
819.000	301
820.000	303
821.000	296
822.000	296
823.000	276
824.000	264
825.000	252
826.000	237
827.000	212
828.000	209
829.000	186
830.000	171
831.000	154
832.000	147
833.000	145
834.000	148
835.000	137
836.000	140
837.000	137
838.000	138
839.000	149
840.000	144
841.000	144
842.000	151
843.000	149
844.000	144
845.000	142
846.000	141
847.000	146
848.000	147
849.000	131
850.000	134
851.000	132
852.000	130
853.000	133
854.000	117
855.000	125
856.000	128
857.000	125
858.000	119
859.000	121
860.000	120
861.000	111
862.000	126
863.000	114
864.000	120
865.000	126
866.000	118
867.000	126
868.000	119
869.000	125
870.000	125
871.000	116
872.000	129
873.000	119
874.000	126
875.000	122
876.000	124
877.000	119
878.000	114
879.000	122
880.000	123
881.000	123
882.000	123
883.000	119
884.000	121
885.000	124
886.000	130
887.000	129
888.000	127
889.000	130
890.000	128
891.000	131
892.000	140
893.000	135
894.000	143
895.000	142
896.000	138
897.000	151
898.000	144
899.000	147
900.000	152
901.000	155
902.000	157
903.000	159
904.000	164
905.000	163
906.000	171
907.000	172
908.000	170
909.000	178
910.000	172
911.000	182
912.000	174
913.000	180
914.000	179
915.000	181
916.000	183
917.000	182
918.000	181
919.000	191
920.000	182
921.000	185
922.000	182
923.000	186
924.000	190
925.000	192
926.000	191
927.000	195
928.000	195
929.000	201
930.000	208
931.000	212
932.000	207
933.000	221
934.000	223
935.000	229
936.000	236
937.000	234
938.000	239
939.000	253
940.000	254
941.000	257
942.000	268
943.000	268
944.000	276
945.000	264
946.000	252
947.000	258
948.000	263
949.000	235
950.000	232
951.000	226
952.000	218
953.000	215
954.000	205
955.000	196
956.000	194
957.000	201
958.000	188
959.000	184
960.000	173
961.000	185
962.000	181
963.000	185
964.000	178
965.000	182
966.000	187
967.000	190
968.000	185
969.000	182
970.000	187
971.000	191
972.000	192
973.000	192
974.000	193
975.000	194
976.000	183
977.000	185
978.000	175
979.000	176
980.000	166
981.000	171
982.000	154
983.000	163
984.000	159
985.000	156
986.000	163
987.000	154
988.000	151
989.000	155
990.000	154
991.000	142
992.000	145
993.000	144
994.000	141
995.000	146
996.000	136
997.000	144
998.000	139
999.000	143
1000.000	143
1001.000	139
1002.000	139
1003.000	144
1004.000	136
1005.000	134
1006.000	134
1007.000	140
1008.000	143
1009.000	136
1010.000	137
1011.000	142
1012.000	136
1013.000	142
1014.000	140
1015.000	141
1016.000	142
1017.000	143
1018.000	140
1019.000	147
1020.000	144
1021.000	146
1022.000	146
1023.000	147
1024.000	148
1025.000	149
1026.000	153
1027.000	151
1028.000	152
1029.000	155
1030.000	155
1031.000	154
1032.000	150
1033.000	146
1034.000	153
1035.000	146
1036.000	154
1037.000	149
1038.000	152
1039.000	144
1040.000	153
1041.000	154
1042.000	153
1043.000	151
1044.000	155
1045.000	157
1046.000	149
1047.000	153
1048.000	154
1049.000	156
1050.000	159
1051.000	160
1052.000	156
1053.000	165
1054.000	161
1055.000	162
1056.000	156
1057.000	154
1058.000	167
1059.000	166
1060.000	160
1061.000	163
1062.000	163
1063.000	162
1064.000	159
1065.000	167
1066.000	158
1067.000	162
1068.000	156
1069.000	173
1070.000	166
1071.000	164
1072.000	162
1073.000	160
1074.000	161
1075.000	167
1076.000	160
1077.000	168
1078.000	160
1079.000	162
1080.000	165
1081.000	164
1082.000	166
1083.000	162
1084.000	165
1085.000	156
1086.000	168
1087.000	168
1088.000	165
1089.000	166
1090.000	168
1091.000	173
1092.000	170
1093.000	167
1094.000	171
1095.000	169
1096.000	180
1097.000	173
1098.000	174
1099.000	175
1100.000	180
1101.000	167
1102.000	179
1103.000	178
1104.000	179
1105.000	175
1106.000	182
1107.000	172
1108.000	167
1109.000	176
1110.000	164
1111.000	168
1112.000	168
1113.000	166
1114.000	165
1115.000	174
1116.000	159
1117.000	169
1118.000	163
1119.000	166
1120.000	159
1121.000	160
1122.000	168
1123.000	163
1124.000	162
1125.000	169
1126.000	163
1127.000	161
1128.000	168
1129.000	169
1130.000	162
1131.000	162
1132.000	163
1133.000	164
1134.000	165
1135.000	160
1136.000	166
1137.000	168
1138.000	163
1139.000	165
1140.000	165
1141.000	174
1142.000	163
1143.000	174
1144.000	167
1145.000	179
1146.000	167
1147.000	175
1148.000	169
1149.000	164
1150.000	178
1151.000	175
1152.000	171
1153.000	184
1154.000	177
1155.000	187
1156.000	181
1157.000	185
1158.000	189
1159.000	188
1160.000	194
1161.000	191
1162.000	191
1163.000	189
1164.000	190
1165.000	196
1166.000	185
1167.000	184
1168.000	187
1169.000	180
1170.000	181
1171.000	181
1172.000	177
1173.000	169
1174.000	174
1175.000	166
1176.000	171
1177.000	165
1178.000	163
1179.000	171
1180.000	167
1181.000	165
1182.000	157
1183.000	166
1184.000	153
1185.000	156
1186.000	172
1187.000	158
1188.000	165
1189.000	165
1190.000	166
1191.000	159
1192.000	168
1193.000	156
1194.000	167
1195.000	162
1196.000	160
1197.000	168
1198.000	159
1199.000	167
1200.000	161
1201.000	165
1202.000	168
1203.000	164
1204.000	161
1205.000	165
1206.000	170
1207.000	167
1208.000	171
1209.000	169
1210.000	161
1211.000	167
1212.000	172
1213.000	168
1214.000	169
1215.000	170
1216.000	173
1217.000	171
1218.000	167
1219.000	167
1220.000	175
1221.000	173
1222.000	168
1223.000	176
1224.000	172
1225.000	184
1226.000	175
1227.000	179
1228.000	167
1229.000	178
1230.000	174
1231.000	173
1232.000	175
1233.000	175
1234.000	176
1235.000	179
1236.000	177
1237.000	176
1238.000	178
1239.000	180
1240.000	178
1241.000	172
1242.000	174
1243.000	176
1244.000	176
1245.000	170
1246.000	181
1247.000	175
1248.000	178
1249.000	178
1250.000	177
1251.000	173
1252.000	177
1253.000	173
1254.000	175
1255.000	176
1256.000	180
1257.000	167
1258.000	176
1259.000	171
1260.000	170
1261.000	184
1262.000	174
1263.000	168
1264.000	171
1265.000	173
1266.000	169
1267.000	175
1268.000	178
1269.000	171
1270.000	174
1271.000	170
1272.000	175
1273.000	169
1274.000	171
1275.000	176
1276.000	175
1277.000	177
1278.000	180
1279.000	184
1280.000	172
1281.000	170
1282.000	179
1283.000	172
1284.000	173
1285.000	176
1286.000	190
1287.000	181
1288.000	174
1289.000	186
1290.000	187
1291.000	189
1292.000	189
1293.000	200
1294.000	198
1295.000	201
1296.000	199
1297.000	206
1298.000	204
1299.000	215
1300.000	206
1301.000	213
1302.000	225
1303.000	220
1304.000	221
1305.000	212
1306.000	219
1307.000	218
1308.000	226
1309.000	216
1310.000	210
1311.000	216
1312.000	210
1313.000	209
1314.000	209
1315.000	201
1316.000	198
1317.000	192
1318.000	191
1319.000	182
1320.000	186
1321.000	180
1322.000	185
1323.000	176
1324.000	185
1325.000	177
1326.000	181
1327.000	184
1328.000	185
1329.000	177
1330.000	170
1331.000	192
1332.000	175
1333.000	177
1334.000	176
1335.000	180
1336.000	173
1337.000	182
1338.000	181
1339.000	184
1340.000	173
1341.000	177
1342.000	180
1343.000	181
1344.000	176
1345.000	179
1346.000	177
1347.000	183
1348.000	181
1349.000	186
1350.000	174
1351.000	182
1352.000	187
1353.000	188
1354.000	185
1355.000	189
1356.000	191
1357.000	210
1358.000	202
1359.000	215
1360.000	234
1361.000	240
1362.000	267
1363.000	276
1364.000	291
1365.000	319
1366.000	344
1367.000	373
1368.000	394
1369.000	431
1370.000	478
1371.000	497
1372.000	549
1373.000	584
1374.000	607
1375.000	632
1376.000	670
1377.000	685
1378.000	701
1379.000	700
1380.000	726
1381.000	695
1382.000	690
1383.000	659
1384.000	657
1385.000	624
1386.000	591
1387.000	551
1388.000	515
1389.000	489
1390.000	441
1391.000	401
1392.000	373
1393.000	328
1394.000	309
1395.000	292
1396.000	268
1397.000	251
1398.000	239
1399.000	216
1400.000	206
1401.000	201
1402.000	189
1403.000	189
1404.000	187
1405.000	188
1406.000	179
1407.000	179
1408.000	177
1409.000	177
1410.000	180
1411.000	180
1412.000	170
1413.000	175
1414.000	173
1415.000	175
1416.000	172
1417.000	166
1418.000	183
1419.000	177
1420.000	175
1421.000	176
1422.000	182
1423.000	173
1424.000	188
1425.000	177
1426.000	177
1427.000	175
1428.000	174
1429.000	180
1430.000	181
1431.000	171
1432.000	175
1433.000	177
1434.000	178
1435.000	182
1436.000	182
1437.000	182
1438.000	180
1439.000	177
1440.000	182
1441.000	177
1442.000	177
1443.000	189
1444.000	187
1445.000	187
1446.000	187
1447.000	190
1448.000	188
1449.000	188
1450.000	187
1451.000	194
1452.000	189
1453.000	193
1454.000	192
1455.000	201
1456.000	188
1457.000	202
1458.000	202
1459.000	195
1460.000	199
1461.000	197
1462.000	197
1463.000	199
1464.000	192
1465.000	193
1466.000	192
1467.000	195
1468.000	193
1469.000	194
1470.000	185
1471.000	181
1472.000	187
1473.000	185
1474.000	191
1475.000	187
1476.000	183
1477.000	181
1478.000	188
1479.000	184
1480.000	179
1481.000	185
1482.000	190
1483.000	183
1484.000	190
1485.000	185
1486.000	188
1487.000	181
1488.000	185
1489.000	180
1490.000	189
1491.000	182
1492.000	180
1493.000	180
1494.000	185
1495.000	179
1496.000	182
1497.000	181
1498.000	191
1499.000	179
1500.000	185
1501.000	181
1502.000	181
1503.000	181
1504.000	192
1505.000	180
1506.000	188
1507.000	197
1508.000	189
1509.000	194
1510.000	189
1511.000	191
1512.000	193
1513.000	190
1514.000	190
1515.000	189
1516.000	199
1517.000	198
1518.000	203
1519.000	199
1520.000	208
1521.000	209
1522.000	212
1523.000	206
1524.000	211
1525.000	214
1526.000	224
1527.000	232
1528.000	238
1529.000	236
1530.000	252
1531.000	259
1532.000	262
1533.000	268
1534.000	277
1535.000	288
1536.000	290
1537.000	303
1538.000	303
1539.000	317
1540.000	315
1541.000	326
1542.000	319
1543.000	321
1544.000	319
1545.000	317
1546.000	318
1547.000	313
1548.000	298
1549.000	303
1550.000	301
1551.000	306
1552.000	286
1553.000	294
1554.000	294
1555.000	280
1556.000	282
1557.000	270
1558.000	276
1559.000	265
1560.000	283
1561.000	279
1562.000	280
1563.000	281
1564.000	281
1565.000	290
1566.000	289
1567.000	287
1568.000	299
1569.000	304
1570.000	309
1571.000	321
1572.000	326
1573.000	335
1574.000	331
1575.000	338
1576.000	352
1577.000	353
1578.000	378
1579.000	381
1580.000	399
1581.000	406
1582.000	409
1583.000	418
1584.000	435
1585.000	444
1586.000	458
1587.000	463
1588.000	485
1589.000	502
1590.000	504
1591.000	514
1592.000	513
1593.000	537
1594.000	554
1595.000	569
1596.000	573
1597.000	592
1598.000	588
1599.000	612
1600.000	607
1601.000	616
1602.000	625
1603.000	618
1604.000	639
1605.000	630
1606.000	647
1607.000	628
1608.000	641
1609.000	628
1610.000	648
1611.000	635
1612.000	638
1613.000	634
1614.000	619
1615.000	619
1616.000	595
1617.000	600
1618.000	589
1619.000	586
1620.000	569
1621.000	570
1622.000	544
1623.000	533
1624.000	518
1625.000	511
1626.000	504
1627.000	492
1628.000	475
1629.000	468
1630.000	463
1631.000	453
1632.000	439
1633.000	421
1634.000	416
1635.000	398
1636.000	388
1637.000	367
1638.000	359
1639.000	359
1640.000	341
1641.000	333
1642.000	325
1643.000	328
1644.000	310
1645.000	306
1646.000	292
1647.000	278
1648.000	280
1649.000	264
1650.000	262
1651.000	251
1652.000	259
1653.000	241
1654.000	229
1655.000	237
1656.000	229
1657.000	235
1658.000	221
1659.000	220
1660.000	205
1661.000	217
1662.000	209
1663.000	205
1664.000	200
1665.000	202
1666.000	201
1667.000	203
1668.000	196
1669.000	190
1670.000	190
1671.000	196
1672.000	197
1673.000	192
1674.000	194
1675.000	194
1676.000	200
1677.000	198
1678.000	207
1679.000	219
1680.000	222
1681.000	238
1682.000	237
1683.000	260
1684.000	273
1685.000	285
1686.000	300
1687.000	325
1688.000	336
1689.000	365
1690.000	376
1691.000	402
1692.000	421
1693.000	449
1694.000	465
1695.000	488
1696.000	493
1697.000	518
1698.000	534
1699.000	532
1700.000	535
1701.000	539
1702.000	556
1703.000	551
1704.000	544
1705.000	516
1706.000	512
1707.000	509
1708.000	474
1709.000	463
1710.000	426
1711.000	406
1712.000	385
1713.000	345
1714.000	334
1715.000	310
1716.000	294
1717.000	268
1718.000	249
1719.000	230
1720.000	226
1721.000	206
1722.000	197
1723.000	193
1724.000	175
1725.000	164
1726.000	163
1727.000	156
1728.000	161
1729.000	159
1730.000	157
1731.000	159
1732.000	151
1733.000	152
1734.000	154
1735.000	146
1736.000	150
1737.000	148
1738.000	146
1739.000	150
1740.000	152
1741.000	145
1742.000	147
1743.000	154
1744.000	144
1745.000	145
1746.000	151
1747.000	154
1748.000	158
1749.000	154
1750.000	145
1751.000	159
1752.000	162
1753.000	145
1754.000	161
1755.000	155
1756.000	152
1757.000	158
1758.000	162
1759.000	157
1760.000	157
1761.000	171
1762.000	164
1763.000	164
1764.000	167
1765.000	167
1766.000	175
1767.000	169
1768.000	168
1769.000	168
1770.000	181
1771.000	180
1772.000	181
1773.000	179
1774.000	189
1775.000	185
1776.000	178
1777.000	187
1778.000	188
1779.000	184
1780.000	191
1781.000	194
1782.000	193
1783.000	192
1784.000	199
1785.000	191
1786.000	198
1787.000	204
1788.000	205
1789.000	203
1790.000	196
1791.000	200
1792.000	206
1793.000	208
1794.000	209
1795.000	201
1796.000	201
1797.000	203
1798.000	207
1799.000	191
1800.000	207
1801.000	197
1802.000	191
1803.000	194
1804.000	195
1805.000	192
1806.000	190
1807.000	191
1808.000	186
1809.000	186
1810.000	180
1811.000	182
1812.000	175
1813.000	170
1814.000	175
1815.000	178
1816.000	166
1817.000	161
1818.000	168
1819.000	161
1820.000	161
1821.000	163
1822.000	158
1823.000	152
1824.000	153
1825.000	149
1826.000	135
1827.000	150
1828.000	142
1829.000	150
1830.000	142
1831.000	136
1832.000	134
1833.000	130
1834.000	129
1835.000	130
1836.000	123
1837.000	124
1838.000	113
1839.000	118
1840.000	115
1841.000	116
1842.000	119
1843.000	107
1844.000	108
1845.000	112
1846.000	105
1847.000	109
1848.000	105
1849.000	107
1850.000	107
1851.000	104
1852.000	97
1853.000	103
1854.000	90
1855.000	96
1856.000	100
1857.000	94
1858.000	96
1859.000	100
1860.000	94
1861.000	90
1862.000	93
1863.000	85
1864.000	87
1865.000	86
1866.000	84
1867.000	83
1868.000	83
1869.000	85
1870.000	81
1871.000	80
1872.000	79
1873.000	81
1874.000	79
1875.000	77
1876.000	80
1877.000	75
1878.000	83
1879.000	78
1880.000	85
1881.000	81
1882.000	76
1883.000	78
1884.000	81
1885.000	82
1886.000	71
1887.000	75
1888.000	79
1889.000	79
1890.000	81
1891.000	84
1892.000	86
1893.000	83
1894.000	85
1895.000	87
1896.000	89
1897.000	91
1898.000	88
1899.000	103
1900.000	94
1901.000	106
1902.000	110
1903.000	112
1904.000	112
1905.000	114
1906.000	121
1907.000	124
1908.000	123
1909.000	125
1910.000	126
1911.000	126
1912.000	124
1913.000	122
1914.000	126
1915.000	124
1916.000	120
1917.000	109
1918.000	109
1919.000	105
1920.000	105
1921.000	100
1922.000	98
1923.000	93
1924.000	91
1925.000	87
1926.000	85
1927.000	81
1928.000	79
1929.000	77
1930.000	80
1931.000	72
1932.000	72
1933.000	69
1934.000	76
1935.000	74
1936.000	68
1937.000	71
1938.000	74
1939.000	69
1940.000	72
1941.000	74
1942.000	71
1943.000	72
1944.000	67
1945.000	79
1946.000	73
1947.000	74
1948.000	69
1949.000	64
1950.000	66
1951.000	64
1952.000	64
1953.000	65
1954.000	63
1955.000	66
1956.000	62
1957.000	62
1958.000	57
1959.000	60
1960.000	58
1961.000	61
1962.000	54
1963.000	57
1964.000	54
1965.000	53
1966.000	54
1967.000	55
1968.000	54
1969.000	56
1970.000	52
1971.000	53
1972.000	54
1973.000	57
1974.000	54
1975.000	51
1976.000	54
1977.000	56
1978.000	51
1979.000	55
1980.000	54
1981.000	56
1982.000	57
1983.000	53
1984.000	58
1985.000	58
1986.000	55
1987.000	51
1988.000	49
1989.000	55
1990.000	53
1991.000	52
1992.000	52
1993.000	50
1994.000	54
1995.000	54
1996.000	50
1997.000	51
1998.000	53
1999.000	51
2000.000	52
2001.000	51
2002.000	55
2003.000	52
2004.000	56
2005.000	55
2006.000	49
2007.000	50
2008.000	51
2009.000	49
2010.000	48
2011.000	49
2012.000	53
2013.000	47
2014.000	47
2015.000	55
2016.000	53
2017.000	48
2018.000	52
2019.000	52
2020.000	54
2021.000	53
2022.000	51
2023.000	55
2024.000	52
2025.000	51
2026.000	46
2027.000	46
2028.000	52
2029.000	54
2030.000	49
2031.000	49
2032.000	48
2033.000	51
2034.000	50
2035.000	51
2036.000	46
2037.000	51
2038.000	49
2039.000	52
2040.000	51
2041.000	50
2042.000	47
2043.000	47
2044.000	49
2045.000	46
2046.000	49
2047.000	46
2048.000	0
