Date:	23-Sep-20		Time:	11:32 PM		Version no:	0.00		Project name:	55		Sample name:	222		Section name:	section		Position	0.000000	mm	E0	0.000000	keV	E1	1.000000	keV/channel	sample surface	2.000000	cm	Tube anode:	Mo		Tube voltage:	30	kV	Tube current:	30	mA	gain	15		std. database			resultfile	result		matrix element	11		sample thickness	1.000000		air passage	0.560000	cm	comments	not in position		peaking_time	0.300000	m-sec	trigger_threshold	40.000000	V	mca_bin_width	2.000000	no:	number_mca_channels	2048.000000	no:	gap_time	2048.000000	m-sec	trigger_peaking_time	2048.000000	m-sec	GAINDAC	400		HIGHGAIN	400		TAURC	400		RCTAU	400		RCTAUFRAC	400		livetime	13.334824	seconds	runtime	15.000351	seconds	input_count_rate	47769.585089	cps	output_count_rate	42465.604889	cps	triggers	704307	seconds	events_in_run	618783	seconds	channel	content		1.000	0
2.000	0
3.000	0
4.000	0
5.000	0
6.000	0
7.000	0
8.000	0
9.000	0
10.000	0
11.000	0
12.000	0
13.000	0
14.000	0
15.000	0
16.000	0
17.000	0
18.000	0
19.000	0
20.000	0
21.000	0
22.000	0
23.000	0
24.000	0
25.000	0
26.000	0
27.000	0
28.000	0
29.000	0
30.000	0
31.000	0
32.000	0
33.000	1
34.000	0
35.000	0
36.000	0
37.000	0
38.000	0
39.000	0
40.000	0
41.000	0
42.000	1
43.000	0
44.000	0
45.000	1
46.000	1
47.000	1
48.000	1
49.000	1
50.000	1
51.000	2
52.000	3
53.000	4
54.000	4
55.000	4
56.000	8
57.000	10
58.000	13
59.000	17
60.000	25
61.000	25
62.000	30
63.000	30
64.000	30
65.000	31
66.000	29
67.000	27
68.000	26
69.000	26
70.000	26
71.000	26
72.000	25
73.000	25
74.000	26
75.000	27
76.000	26
77.000	23
78.000	26
79.000	21
80.000	25
81.000	21
82.000	26
83.000	27
84.000	24
85.000	27
86.000	26
87.000	26
88.000	28
89.000	23
90.000	23
91.000	21
92.000	23
93.000	22
94.000	20
95.000	20
96.000	24
97.000	23
98.000	20
99.000	23
100.000	23
101.000	21
102.000	22
103.000	20
104.000	18
105.000	19
106.000	19
107.000	20
108.000	18
109.000	17
110.000	19
111.000	18
112.000	18
113.000	19
114.000	19
115.000	19
116.000	19
117.000	18
118.000	21
119.000	19
120.000	19
121.000	17
122.000	20
123.000	17
124.000	19
125.000	16
126.000	18
127.000	17
128.000	16
129.000	14
130.000	17
131.000	17
132.000	14
133.000	16
134.000	16
135.000	15
136.000	16
137.000	17
138.000	18
139.000	17
140.000	20
141.000	20
142.000	24
143.000	23
144.000	23
145.000	26
146.000	25
147.000	24
148.000	27
149.000	23
150.000	20
151.000	19
152.000	16
153.000	16
154.000	16
155.000	15
156.000	14
157.000	15
158.000	14
159.000	16
160.000	15
161.000	14
162.000	13
163.000	14
164.000	17
165.000	19
166.000	21
167.000	21
168.000	25
169.000	27
170.000	30
171.000	28
172.000	32
173.000	28
174.000	28
175.000	28
176.000	23
177.000	26
178.000	26
179.000	32
180.000	36
181.000	42
182.000	50
183.000	61
184.000	82
185.000	118
186.000	147
187.000	197
188.000	237
189.000	283
190.000	311
191.000	324
192.000	306
193.000	276
194.000	220
195.000	186
196.000	141
197.000	103
198.000	69
199.000	50
200.000	36
201.000	28
202.000	21
203.000	21
204.000	20
205.000	17
206.000	21
207.000	17
208.000	18
209.000	19
210.000	18
211.000	20
212.000	19
213.000	22
214.000	22
215.000	31
216.000	27
217.000	32
218.000	38
219.000	46
220.000	48
221.000	58
222.000	59
223.000	60
224.000	64
225.000	56
226.000	51
227.000	44
228.000	37
229.000	30
230.000	26
231.000	28
232.000	20
233.000	18
234.000	15
235.000	17
236.000	15
237.000	17
238.000	15
239.000	16
240.000	16
241.000	18
242.000	16
243.000	17
244.000	15
245.000	18
246.000	20
247.000	24
248.000	32
249.000	41
250.000	55
251.000	71
252.000	101
253.000	124
254.000	147
255.000	171
256.000	191
257.000	201
258.000	184
259.000	170
260.000	147
261.000	128
262.000	99
263.000	77
264.000	60
265.000	48
266.000	32
267.000	24
268.000	27
269.000	25
270.000	26
271.000	26
272.000	31
273.000	33
274.000	35
275.000	38
276.000	37
277.000	37
278.000	37
279.000	35
280.000	33
281.000	33
282.000	44
283.000	45
284.000	52
285.000	52
286.000	65
287.000	72
288.000	78
289.000	87
290.000	86
291.000	86
292.000	86
293.000	77
294.000	63
295.000	53
296.000	47
297.000	42
298.000	31
299.000	30
300.000	28
301.000	26
302.000	26
303.000	29
304.000	26
305.000	30
306.000	30
307.000	33
308.000	37
309.000	37
310.000	36
311.000	36
312.000	41
313.000	44
314.000	48
315.000	54
316.000	53
317.000	67
318.000	78
319.000	84
320.000	93
321.000	110
322.000	124
323.000	128
324.000	139
325.000	136
326.000	131
327.000	127
328.000	104
329.000	95
330.000	73
331.000	66
332.000	53
333.000	43
334.000	37
335.000	38
336.000	35
337.000	37
338.000	41
339.000	44
340.000	50
341.000	62
342.000	72
343.000	92
344.000	128
345.000	165
346.000	246
347.000	380
348.000	596
349.000	924
350.000	1494
351.000	2349
352.000	3543
353.000	5280
354.000	7493
355.000	10273
356.000	13476
357.000	16846
358.000	20128
359.000	23007
360.000	25106
361.000	26210
362.000	25842
363.000	24630
364.000	22232
365.000	19137
366.000	15843
367.000	12403
368.000	9302
369.000	6673
370.000	4632
371.000	3039
372.000	1919
373.000	1179
374.000	726
375.000	439
376.000	306
377.000	223
378.000	220
379.000	224
380.000	282
381.000	353
382.000	485
383.000	651
384.000	893
385.000	1173
386.000	1539
387.000	1993
388.000	2421
389.000	2908
390.000	3306
391.000	3666
392.000	3854
393.000	3938
394.000	3767
395.000	3512
396.000	3118
397.000	2663
398.000	2195
399.000	1714
400.000	1289
401.000	912
402.000	635
403.000	422
404.000	270
405.000	172
406.000	101
407.000	59
408.000	38
409.000	22
410.000	16
411.000	13
412.000	11
413.000	9
414.000	8
415.000	8
416.000	8
417.000	8
418.000	8
419.000	9
420.000	8
421.000	8
422.000	7
423.000	7
424.000	7
425.000	9
426.000	10
427.000	9
428.000	9
429.000	14
430.000	14
431.000	19
432.000	25
433.000	30
434.000	33
435.000	42
436.000	54
437.000	60
438.000	64
439.000	73
440.000	75
441.000	75
442.000	80
443.000	71
444.000	70
445.000	58
446.000	52
447.000	46
448.000	37
449.000	32
450.000	25
451.000	24
452.000	19
453.000	21
454.000	19
455.000	20
456.000	16
457.000	16
458.000	14
459.000	16
460.000	15
461.000	14
462.000	14
463.000	12
464.000	12
465.000	13
466.000	11
467.000	14
468.000	12
469.000	11
470.000	12
471.000	13
472.000	15
473.000	13
474.000	16
475.000	17
476.000	17
477.000	16
478.000	18
479.000	22
480.000	25
481.000	22
482.000	23
483.000	22
484.000	24
485.000	22
486.000	18
487.000	22
488.000	22
489.000	18
490.000	18
491.000	14
492.000	14
493.000	17
494.000	12
495.000	14
496.000	13
497.000	15
498.000	11
499.000	15
500.000	12
501.000	14
502.000	17
503.000	16
504.000	13
505.000	17
506.000	16
507.000	16
508.000	16
509.000	18
510.000	13
511.000	18
512.000	20
513.000	19
514.000	20
515.000	20
516.000	20
517.000	19
518.000	22
519.000	24
520.000	26
521.000	25
522.000	27
523.000	31
524.000	35
525.000	32
526.000	36
527.000	36
528.000	38
529.000	39
530.000	37
531.000	36
532.000	34
533.000	34
534.000	31
535.000	29
536.000	26
537.000	27
538.000	23
539.000	22
540.000	19
541.000	18
542.000	20
543.000	21
544.000	20
545.000	19
546.000	17
547.000	21
548.000	19
549.000	19
550.000	23
551.000	24
552.000	24
553.000	24
554.000	23
555.000	24
556.000	26
557.000	30
558.000	23
559.000	29
560.000	27
561.000	31
562.000	34
563.000	34
564.000	36
565.000	34
566.000	40
567.000	46
568.000	44
569.000	45
570.000	51
571.000	55
572.000	60
573.000	63
574.000	68
575.000	68
576.000	73
577.000	69
578.000	70
579.000	58
580.000	63
581.000	56
582.000	50
583.000	43
584.000	41
585.000	39
586.000	31
587.000	30
588.000	27
589.000	26
590.000	26
591.000	26
592.000	26
593.000	23
594.000	22
595.000	25
596.000	23
597.000	24
598.000	24
599.000	24
600.000	28
601.000	26
602.000	26
603.000	29
604.000	29
605.000	31
606.000	36
607.000	42
608.000	51
609.000	64
610.000	82
611.000	108
612.000	137
613.000	196
614.000	263
615.000	352
616.000	447
617.000	584
618.000	721
619.000	859
620.000	1039
621.000	1175
622.000	1337
623.000	1428
624.000	1493
625.000	1527
626.000	1528
627.000	1487
628.000	1386
629.000	1265
630.000	1123
631.000	984
632.000	805
633.000	654
634.000	532
635.000	409
636.000	320
637.000	245
638.000	188
639.000	149
640.000	109
641.000	86
642.000	74
643.000	63
644.000	59
645.000	58
646.000	53
647.000	48
648.000	50
649.000	50
650.000	48
651.000	48
652.000	50
653.000	46
654.000	46
655.000	51
656.000	45
657.000	50
658.000	51
659.000	49
660.000	54
661.000	52
662.000	53
663.000	54
664.000	54
665.000	54
666.000	55
667.000	52
668.000	58
669.000	61
670.000	66
671.000	66
672.000	69
673.000	73
674.000	74
675.000	83
676.000	91
677.000	96
678.000	108
679.000	128
680.000	144
681.000	158
682.000	176
683.000	204
684.000	227
685.000	244
686.000	268
687.000	275
688.000	294
689.000	293
690.000	297
691.000	283
692.000	268
693.000	249
694.000	232
695.000	197
696.000	185
697.000	167
698.000	134
699.000	117
700.000	114
701.000	90
702.000	82
703.000	72
704.000	70
705.000	64
706.000	64
707.000	60
708.000	60
709.000	56
710.000	60
711.000	58
712.000	66
713.000	68
714.000	71
715.000	70
716.000	77
717.000	78
718.000	88
719.000	84
720.000	87
721.000	90
722.000	92
723.000	95
724.000	96
725.000	96
726.000	88
727.000	88
728.000	91
729.000	89
730.000	88
731.000	82
732.000	80
733.000	86
734.000	85
735.000	78
736.000	80
737.000	76
738.000	72
739.000	71
740.000	71
741.000	69
742.000	63
743.000	68
744.000	69
745.000	67
746.000	75
747.000	73
748.000	72
749.000	73
750.000	70
751.000	73
752.000	74
753.000	73
754.000	70
755.000	70
756.000	75
757.000	69
758.000	74
759.000	73
760.000	74
761.000	70
762.000	64
763.000	72
764.000	72
765.000	73
766.000	78
767.000	80
768.000	73
769.000	78
770.000	78
771.000	79
772.000	81
773.000	76
774.000	81
775.000	88
776.000	86
777.000	93
778.000	91
779.000	99
780.000	101
781.000	99
782.000	104
783.000	113
784.000	110
785.000	114
786.000	122
787.000	118
788.000	119
789.000	125
790.000	126
791.000	129
792.000	136
793.000	135
794.000	133
795.000	141
796.000	140
797.000	141
798.000	135
799.000	140
800.000	146
801.000	142
802.000	134
803.000	145
804.000	154
805.000	151
806.000	162
807.000	165
808.000	176
809.000	189
810.000	195
811.000	216
812.000	233
813.000	250
814.000	269
815.000	285
816.000	292
817.000	304
818.000	302
819.000	323
820.000	315
821.000	309
822.000	305
823.000	285
824.000	275
825.000	263
826.000	245
827.000	219
828.000	202
829.000	186
830.000	172
831.000	164
832.000	147
833.000	142
834.000	132
835.000	126
836.000	125
837.000	122
838.000	122
839.000	118
840.000	119
841.000	118
842.000	114
843.000	124
844.000	120
845.000	118
846.000	116
847.000	111
848.000	123
849.000	116
850.000	122
851.000	113
852.000	111
853.000	123
854.000	115
855.000	119
856.000	113
857.000	122
858.000	114
859.000	113
860.000	111
861.000	114
862.000	117
863.000	108
864.000	115
865.000	119
866.000	118
867.000	114
868.000	119
869.000	117
870.000	114
871.000	120
872.000	118
873.000	106
874.000	109
875.000	108
876.000	114
877.000	113
878.000	112
879.000	112
880.000	114
881.000	112
882.000	116
883.000	114
884.000	116
885.000	113
886.000	111
887.000	118
888.000	118
889.000	116
890.000	120
891.000	118
892.000	116
893.000	127
894.000	122
895.000	129
896.000	117
897.000	129
898.000	135
899.000	132
900.000	140
901.000	134
902.000	142
903.000	141
904.000	148
905.000	151
906.000	150
907.000	148
908.000	153
909.000	154
910.000	154
911.000	170
912.000	159
913.000	164
914.000	166
915.000	169
916.000	168
917.000	171
918.000	171
919.000	169
920.000	178
921.000	180
922.000	182
923.000	175
924.000	182
925.000	180
926.000	189
927.000	190
928.000	184
929.000	194
930.000	201
931.000	194
932.000	205
933.000	218
934.000	211
935.000	216
936.000	227
937.000	234
938.000	236
939.000	259
940.000	257
941.000	257
942.000	270
943.000	259
944.000	263
945.000	265
946.000	256
947.000	263
948.000	248
949.000	241
950.000	233
951.000	216
952.000	219
953.000	205
954.000	200
955.000	196
956.000	192
957.000	184
958.000	182
959.000	188
960.000	180
961.000	180
962.000	177
963.000	177
964.000	175
965.000	177
966.000	180
967.000	195
968.000	185
969.000	185
970.000	182
971.000	179
972.000	185
973.000	189
974.000	182
975.000	178
976.000	175
977.000	167
978.000	167
979.000	176
980.000	170
981.000	152
982.000	157
983.000	156
984.000	157
985.000	153
986.000	144
987.000	146
988.000	142
989.000	142
990.000	150
991.000	142
992.000	146
993.000	144
994.000	133
995.000	134
996.000	138
997.000	143
998.000	140
999.000	132
1000.000	135
1001.000	134
1002.000	131
1003.000	128
1004.000	129
1005.000	140
1006.000	130
1007.000	132
1008.000	132
1009.000	130
1010.000	130
1011.000	134
1012.000	136
1013.000	137
1014.000	140
1015.000	140
1016.000	136
1017.000	135
1018.000	137
1019.000	133
1020.000	125
1021.000	134
1022.000	132
1023.000	135
1024.000	139
1025.000	136
1026.000	134
1027.000	140
1028.000	143
1029.000	133
1030.000	146
1031.000	135
1032.000	141
1033.000	145
1034.000	138
1035.000	143
1036.000	142
1037.000	145
1038.000	137
1039.000	141
1040.000	145
1041.000	149
1042.000	144
1043.000	156
1044.000	145
1045.000	150
1046.000	151
1047.000	154
1048.000	149
1049.000	151
1050.000	152
1051.000	152
1052.000	155
1053.000	157
1054.000	155
1055.000	153
1056.000	146
1057.000	152
1058.000	155
1059.000	157
1060.000	158
1061.000	160
1062.000	159
1063.000	154
1064.000	161
1065.000	159
1066.000	165
1067.000	154
1068.000	158
1069.000	155
1070.000	160
1071.000	158
1072.000	164
1073.000	161
1074.000	151
1075.000	156
1076.000	162
1077.000	156
1078.000	157
1079.000	162
1080.000	157
1081.000	156
1082.000	157
1083.000	166
1084.000	159
1085.000	153
1086.000	163
1087.000	157
1088.000	159
1089.000	155
1090.000	169
1091.000	156
1092.000	162
1093.000	169
1094.000	169
1095.000	168
1096.000	168
1097.000	170
1098.000	167
1099.000	172
1100.000	180
1101.000	176
1102.000	171
1103.000	176
1104.000	169
1105.000	169
1106.000	174
1107.000	180
1108.000	170
1109.000	162
1110.000	167
1111.000	166
1112.000	167
1113.000	160
1114.000	170
1115.000	162
1116.000	163
1117.000	157
1118.000	163
1119.000	163
1120.000	154
1121.000	159
1122.000	167
1123.000	156
1124.000	162
1125.000	160
1126.000	156
1127.000	159
1128.000	157
1129.000	165
1130.000	164
1131.000	166
1132.000	161
1133.000	162
1134.000	162
1135.000	168
1136.000	159
1137.000	167
1138.000	165
1139.000	162
1140.000	161
1141.000	167
1142.000	163
1143.000	164
1144.000	163
1145.000	168
1146.000	169
1147.000	168
1148.000	170
1149.000	175
1150.000	169
1151.000	175
1152.000	178
1153.000	171
1154.000	176
1155.000	183
1156.000	175
1157.000	183
1158.000	174
1159.000	186
1160.000	179
1161.000	186
1162.000	190
1163.000	175
1164.000	189
1165.000	182
1166.000	176
1167.000	182
1168.000	182
1169.000	176
1170.000	171
1171.000	174
1172.000	169
1173.000	170
1174.000	167
1175.000	165
1176.000	160
1177.000	166
1178.000	161
1179.000	160
1180.000	163
1181.000	161
1182.000	158
1183.000	158
1184.000	163
1185.000	155
1186.000	161
1187.000	159
1188.000	156
1189.000	162
1190.000	158
1191.000	157
1192.000	161
1193.000	156
1194.000	168
1195.000	159
1196.000	164
1197.000	153
1198.000	158
1199.000	156
1200.000	165
1201.000	162
1202.000	158
1203.000	159
1204.000	163
1205.000	158
1206.000	165
1207.000	162
1208.000	165
1209.000	166
1210.000	161
1211.000	162
1212.000	162
1213.000	162
1214.000	164
1215.000	162
1216.000	172
1217.000	165
1218.000	164
1219.000	166
1220.000	166
1221.000	166
1222.000	163
1223.000	170
1224.000	175
1225.000	165
1226.000	163
1227.000	172
1228.000	168
1229.000	169
1230.000	162
1231.000	162
1232.000	169
1233.000	162
1234.000	165
1235.000	174
1236.000	174
1237.000	165
1238.000	156
1239.000	167
1240.000	166
1241.000	164
1242.000	171
1243.000	168
1244.000	168
1245.000	169
1246.000	176
1247.000	167
1248.000	164
1249.000	168
1250.000	176
1251.000	171
1252.000	164
1253.000	160
1254.000	169
1255.000	161
1256.000	158
1257.000	170
1258.000	166
1259.000	164
1260.000	164
1261.000	164
1262.000	164
1263.000	167
1264.000	169
1265.000	164
1266.000	164
1267.000	166
1268.000	167
1269.000	161
1270.000	165
1271.000	161
1272.000	165
1273.000	166
1274.000	163
1275.000	170
1276.000	171
1277.000	160
1278.000	164
1279.000	166
1280.000	164
1281.000	164
1282.000	160
1283.000	170
1284.000	157
1285.000	163
1286.000	162
1287.000	165
1288.000	159
1289.000	174
1290.000	164
1291.000	169
1292.000	171
1293.000	174
1294.000	171
1295.000	168
1296.000	173
1297.000	175
1298.000	173
1299.000	178
1300.000	177
1301.000	170
1302.000	174
1303.000	179
1304.000	173
1305.000	173
1306.000	173
1307.000	175
1308.000	180
1309.000	178
1310.000	175
1311.000	171
1312.000	167
1313.000	171
1314.000	180
1315.000	165
1316.000	170
1317.000	170
1318.000	177
1319.000	176
1320.000	170
1321.000	167
1322.000	174
1323.000	171
1324.000	173
1325.000	166
1326.000	178
1327.000	175
1328.000	174
1329.000	179
1330.000	173
1331.000	170
1332.000	184
1333.000	164
1334.000	166
1335.000	172
1336.000	170
1337.000	173
1338.000	171
1339.000	171
1340.000	176
1341.000	173
1342.000	173
1343.000	178
1344.000	177
1345.000	178
1346.000	177
1347.000	171
1348.000	185
1349.000	183
1350.000	182
1351.000	182
1352.000	181
1353.000	185
1354.000	185
1355.000	200
1356.000	199
1357.000	204
1358.000	228
1359.000	243
1360.000	261
1361.000	277
1362.000	303
1363.000	326
1364.000	362
1365.000	397
1366.000	450
1367.000	500
1368.000	552
1369.000	597
1370.000	663
1371.000	718
1372.000	784
1373.000	830
1374.000	888
1375.000	950
1376.000	993
1377.000	1016
1378.000	1032
1379.000	1059
1380.000	1064
1381.000	1035
1382.000	1046
1383.000	984
1384.000	960
1385.000	912
1386.000	865
1387.000	797
1388.000	743
1389.000	683
1390.000	615
1391.000	557
1392.000	497
1393.000	447
1394.000	404
1395.000	356
1396.000	320
1397.000	279
1398.000	266
1399.000	244
1400.000	228
1401.000	216
1402.000	201
1403.000	202
1404.000	180
1405.000	177
1406.000	179
1407.000	167
1408.000	171
1409.000	168
1410.000	178
1411.000	177
1412.000	161
1413.000	168
1414.000	162
1415.000	169
1416.000	170
1417.000	168
1418.000	172
1419.000	167
1420.000	165
1421.000	172
1422.000	169
1423.000	164
1424.000	157
1425.000	169
1426.000	164
1427.000	167
1428.000	170
1429.000	166
1430.000	170
1431.000	168
1432.000	172
1433.000	170
1434.000	168
1435.000	162
1436.000	161
1437.000	167
1438.000	168
1439.000	169
1440.000	170
1441.000	175
1442.000	172
1443.000	173
1444.000	176
1445.000	179
1446.000	169
1447.000	180
1448.000	174
1449.000	176
1450.000	177
1451.000	182
1452.000	177
1453.000	169
1454.000	174
1455.000	180
1456.000	177
1457.000	170
1458.000	174
1459.000	174
1460.000	179
1461.000	170
1462.000	178
1463.000	179
1464.000	181
1465.000	176
1466.000	168
1467.000	177
1468.000	186
1469.000	174
1470.000	172
1471.000	174
1472.000	176
1473.000	172
1474.000	170
1475.000	171
1476.000	174
1477.000	172
1478.000	166
1479.000	165
1480.000	173
1481.000	167
1482.000	178
1483.000	175
1484.000	176
1485.000	168
1486.000	172
1487.000	183
1488.000	179
1489.000	178
1490.000	176
1491.000	180
1492.000	179
1493.000	180
1494.000	175
1495.000	176
1496.000	171
1497.000	178
1498.000	184
1499.000	172
1500.000	173
1501.000	174
1502.000	172
1503.000	178
1504.000	185
1505.000	180
1506.000	184
1507.000	177
1508.000	182
1509.000	172
1510.000	177
1511.000	186
1512.000	177
1513.000	184
1514.000	179
1515.000	188
1516.000	183
1517.000	188
1518.000	189
1519.000	184
1520.000	184
1521.000	189
1522.000	192
1523.000	193
1524.000	204
1525.000	200
1526.000	216
1527.000	214
1528.000	211
1529.000	226
1530.000	232
1531.000	234
1532.000	254
1533.000	257
1534.000	274
1535.000	279
1536.000	293
1537.000	310
1538.000	315
1539.000	324
1540.000	327
1541.000	340
1542.000	341
1543.000	346
1544.000	346
1545.000	351
1546.000	339
1547.000	338
1548.000	349
1549.000	332
1550.000	334
1551.000	320
1552.000	315
1553.000	301
1554.000	300
1555.000	294
1556.000	284
1557.000	288
1558.000	272
1559.000	277
1560.000	266
1561.000	276
1562.000	272
1563.000	267
1564.000	275
1565.000	278
1566.000	282
1567.000	281
1568.000	299
1569.000	283
1570.000	293
1571.000	309
1572.000	306
1573.000	327
1574.000	316
1575.000	332
1576.000	343
1577.000	350
1578.000	341
1579.000	352
1580.000	359
1581.000	366
1582.000	389
1583.000	388
1584.000	409
1585.000	418
1586.000	415
1587.000	440
1588.000	436
1589.000	463
1590.000	480
1591.000	477
1592.000	496
1593.000	490
1594.000	512
1595.000	519
1596.000	518
1597.000	534
1598.000	549
1599.000	558
1600.000	550
1601.000	565
1602.000	572
1603.000	588
1604.000	575
1605.000	594
1606.000	597
1607.000	582
1608.000	585
1609.000	570
1610.000	586
1611.000	579
1612.000	571
1613.000	575
1614.000	579
1615.000	566
1616.000	560
1617.000	557
1618.000	550
1619.000	532
1620.000	531
1621.000	504
1622.000	504
1623.000	509
1624.000	478
1625.000	478
1626.000	459
1627.000	442
1628.000	434
1629.000	433
1630.000	424
1631.000	414
1632.000	398
1633.000	376
1634.000	375
1635.000	370
1636.000	354
1637.000	347
1638.000	339
1639.000	324
1640.000	321
1641.000	306
1642.000	285
1643.000	291
1644.000	278
1645.000	274
1646.000	265
1647.000	259
1648.000	248
1649.000	244
1650.000	246
1651.000	231
1652.000	229
1653.000	230
1654.000	214
1655.000	217
1656.000	213
1657.000	202
1658.000	201
1659.000	193
1660.000	187
1661.000	195
1662.000	183
1663.000	188
1664.000	180
1665.000	179
1666.000	179
1667.000	180
1668.000	182
1669.000	180
1670.000	181
1671.000	174
1672.000	172
1673.000	177
1674.000	177
1675.000	175
1676.000	185
1677.000	188
1678.000	187
1679.000	191
1680.000	205
1681.000	224
1682.000	233
1683.000	237
1684.000	265
1685.000	277
1686.000	290
1687.000	316
1688.000	332
1689.000	345
1690.000	369
1691.000	395
1692.000	423
1693.000	434
1694.000	461
1695.000	484
1696.000	497
1697.000	523
1698.000	529
1699.000	533
1700.000	540
1701.000	548
1702.000	544
1703.000	530
1704.000	529
1705.000	522
1706.000	510
1707.000	489
1708.000	480
1709.000	451
1710.000	428
1711.000	411
1712.000	371
1713.000	352
1714.000	328
1715.000	289
1716.000	285
1717.000	263
1718.000	235
1719.000	224
1720.000	208
1721.000	189
1722.000	178
1723.000	174
1724.000	166
1725.000	161
1726.000	154
1727.000	149
1728.000	146
1729.000	147
1730.000	133
1731.000	148
1732.000	138
1733.000	135
1734.000	136
1735.000	134
1736.000	140
1737.000	141
1738.000	136
1739.000	136
1740.000	135
1741.000	136
1742.000	135
1743.000	143
1744.000	136
1745.000	138
1746.000	146
1747.000	135
1748.000	142
1749.000	144
1750.000	142
1751.000	142
1752.000	148
1753.000	145
1754.000	141
1755.000	142
1756.000	143
1757.000	149
1758.000	152
1759.000	149
1760.000	146
1761.000	163
1762.000	140
1763.000	154
1764.000	156
1765.000	156
1766.000	153
1767.000	155
1768.000	162
1769.000	158
1770.000	153
1771.000	169
1772.000	167
1773.000	179
1774.000	169
1775.000	172
1776.000	176
1777.000	172
1778.000	177
1779.000	180
1780.000	186
1781.000	187
1782.000	184
1783.000	181
1784.000	186
1785.000	180
1786.000	189
1787.000	182
1788.000	192
1789.000	189
1790.000	195
1791.000	187
1792.000	185
1793.000	186
1794.000	186
1795.000	178
1796.000	194
1797.000	190
1798.000	184
1799.000	178
1800.000	183
1801.000	189
1802.000	188
1803.000	173
1804.000	181
1805.000	173
1806.000	180
1807.000	174
1808.000	170
1809.000	179
1810.000	168
1811.000	167
1812.000	168
1813.000	163
1814.000	163
1815.000	161
1816.000	155
1817.000	153
1818.000	158
1819.000	161
1820.000	141
1821.000	146
1822.000	138
1823.000	137
1824.000	143
1825.000	128
1826.000	135
1827.000	134
1828.000	134
1829.000	125
1830.000	125
1831.000	124
1832.000	118
1833.000	121
1834.000	114
1835.000	113
1836.000	122
1837.000	116
1838.000	114
1839.000	108
1840.000	110
1841.000	104
1842.000	104
1843.000	105
1844.000	107
1845.000	101
1846.000	103
1847.000	96
1848.000	95
1849.000	93
1850.000	97
1851.000	93
1852.000	94
1853.000	92
1854.000	92
1855.000	93
1856.000	92
1857.000	84
1858.000	92
1859.000	84
1860.000	82
1861.000	81
1862.000	81
1863.000	85
1864.000	81
1865.000	76
1866.000	80
1867.000	74
1868.000	81
1869.000	76
1870.000	78
1871.000	76
1872.000	77
1873.000	80
1874.000	74
1875.000	78
1876.000	73
1877.000	76
1878.000	73
1879.000	71
1880.000	76
1881.000	78
1882.000	72
1883.000	75
1884.000	73
1885.000	68
1886.000	74
1887.000	70
1888.000	74
1889.000	74
1890.000	76
1891.000	76
1892.000	78
1893.000	80
1894.000	78
1895.000	77
1896.000	81
1897.000	84
1898.000	90
1899.000	91
1900.000	97
1901.000	93
1902.000	102
1903.000	105
1904.000	106
1905.000	110
1906.000	111
1907.000	115
1908.000	119
1909.000	126
1910.000	119
1911.000	122
1912.000	120
1913.000	119
1914.000	110
1915.000	116
1916.000	112
1917.000	110
1918.000	106
1919.000	98
1920.000	106
1921.000	99
1922.000	90
1923.000	89
1924.000	89
1925.000	84
1926.000	80
1927.000	76
1928.000	73
1929.000	73
1930.000	69
1931.000	73
1932.000	76
1933.000	69
1934.000	62
1935.000	67
1936.000	65
1937.000	64
1938.000	67
1939.000	68
1940.000	61
1941.000	62
1942.000	62
1943.000	64
1944.000	68
1945.000	62
1946.000	64
1947.000	61
1948.000	74
1949.000	60
1950.000	62
1951.000	62
1952.000	65
1953.000	62
1954.000	61
1955.000	59
1956.000	58
1957.000	60
1958.000	54
1959.000	59
1960.000	52
1961.000	55
1962.000	53
1963.000	55
1964.000	54
1965.000	54
1966.000	51
1967.000	51
1968.000	49
1969.000	51
1970.000	52
1971.000	50
1972.000	53
1973.000	50
1974.000	52
1975.000	48
1976.000	51
1977.000	51
1978.000	50
1979.000	50
1980.000	52
1981.000	51
1982.000	49
1983.000	47
1984.000	47
1985.000	48
1986.000	50
1987.000	54
1988.000	50
1989.000	51
1990.000	47
1991.000	52
1992.000	48
1993.000	52
1994.000	50
1995.000	47
1996.000	50
1997.000	50
1998.000	46
1999.000	50
2000.000	46
2001.000	48
2002.000	47
2003.000	50
2004.000	49
2005.000	45
2006.000	45
2007.000	46
2008.000	44
2009.000	47
2010.000	46
2011.000	50
2012.000	48
2013.000	48
2014.000	46
2015.000	43
2016.000	49
2017.000	47
2018.000	45
2019.000	45
2020.000	46
2021.000	44
2022.000	48
2023.000	43
2024.000	48
2025.000	46
2026.000	46
2027.000	44
2028.000	41
2029.000	48
2030.000	42
2031.000	43
2032.000	48
2033.000	47
2034.000	44
2035.000	46
2036.000	44
2037.000	46
2038.000	45
2039.000	46
2040.000	46
2041.000	45
2042.000	44
2043.000	47
2044.000	43
2045.000	46
2046.000	46
2047.000	45
2048.000	0
