Date:	22-Sep-20		Time:	10:49 PM		Version no:	0.00		Project name:	55		Sample name:	222		Section name:	section		Position	0.000000	mm	E0	0.000000	keV	E1	1.000000	keV/channel	sample surface	2.000000	cm	Tube anode:	Mo		Tube voltage:	30	kV	Tube current:	30	mA	gain	15		std. database			resultfile	result		matrix element	11		sample thickness	1.000000		air passage	0.560000	cm	comments	not in position		peaking_time	0.300000	m-sec	trigger_threshold	40.000000	V	mca_bin_width	2.000000	no:	number_mca_channels	2048.000000	no:	gap_time	2048.000000	m-sec	trigger_peaking_time	2048.000000	m-sec	GAINDAC	400		HIGHGAIN	400		TAURC	400		RCTAU	400		RCTAUFRAC	400		livetime	12.778311	seconds	runtime	15.000098	seconds	input_count_rate	8453.386602	cps	output_count_rate	7201.286285	cps	triggers	126178	seconds	events_in_run	98622	seconds	channel	content		1.000	0
2.000	0
3.000	0
4.000	0
5.000	0
6.000	0
7.000	0
8.000	0
9.000	0
10.000	0
11.000	0
12.000	0
13.000	0
14.000	0
15.000	0
16.000	0
17.000	0
18.000	0
19.000	0
20.000	0
21.000	0
22.000	0
23.000	0
24.000	0
25.000	0
26.000	0
27.000	0
28.000	0
29.000	0
30.000	0
31.000	0
32.000	0
33.000	0
34.000	0
35.000	1
36.000	0
37.000	0
38.000	0
39.000	0
40.000	0
41.000	0
42.000	0
43.000	0
44.000	0
45.000	0
46.000	0
47.000	1
48.000	1
49.000	0
50.000	1
51.000	1
52.000	2
53.000	2
54.000	2
55.000	4
56.000	6
57.000	8
58.000	12
59.000	16
60.000	21
61.000	23
62.000	25
63.000	25
64.000	28
65.000	25
66.000	23
67.000	24
68.000	25
69.000	21
70.000	22
71.000	21
72.000	21
73.000	22
74.000	19
75.000	21
76.000	23
77.000	21
78.000	19
79.000	22
80.000	22
81.000	20
82.000	24
83.000	21
84.000	20
85.000	20
86.000	22
87.000	21
88.000	21
89.000	21
90.000	22
91.000	19
92.000	21
93.000	19
94.000	19
95.000	17
96.000	21
97.000	21
98.000	19
99.000	17
100.000	18
101.000	17
102.000	17
103.000	17
104.000	17
105.000	16
106.000	17
107.000	17
108.000	16
109.000	14
110.000	16
111.000	16
112.000	18
113.000	15
114.000	17
115.000	14
116.000	15
117.000	16
118.000	17
119.000	16
120.000	15
121.000	16
122.000	14
123.000	15
124.000	13
125.000	15
126.000	16
127.000	15
128.000	12
129.000	15
130.000	13
131.000	13
132.000	14
133.000	14
134.000	15
135.000	12
136.000	14
137.000	13
138.000	14
139.000	13
140.000	15
141.000	17
142.000	19
143.000	22
144.000	20
145.000	22
146.000	22
147.000	24
148.000	21
149.000	19
150.000	18
151.000	16
152.000	17
153.000	18
154.000	18
155.000	15
156.000	13
157.000	16
158.000	15
159.000	13
160.000	15
161.000	14
162.000	18
163.000	21
164.000	29
165.000	41
166.000	60
167.000	74
168.000	88
169.000	103
170.000	112
171.000	117
172.000	111
173.000	100
174.000	80
175.000	67
176.000	50
177.000	40
178.000	33
179.000	28
180.000	31
181.000	30
182.000	35
183.000	40
184.000	50
185.000	65
186.000	88
187.000	102
188.000	137
189.000	147
190.000	164
191.000	171
192.000	167
193.000	156
194.000	133
195.000	101
196.000	83
197.000	57
198.000	41
199.000	29
200.000	23
201.000	15
202.000	14
203.000	13
204.000	12
205.000	12
206.000	11
207.000	11
208.000	12
209.000	12
210.000	14
211.000	13
212.000	16
213.000	15
214.000	17
215.000	17
216.000	16
217.000	22
218.000	24
219.000	26
220.000	26
221.000	31
222.000	32
223.000	32
224.000	34
225.000	29
226.000	27
227.000	22
228.000	21
229.000	21
230.000	16
231.000	12
232.000	13
233.000	12
234.000	13
235.000	11
236.000	11
237.000	9
238.000	10
239.000	11
240.000	12
241.000	9
242.000	11
243.000	8
244.000	12
245.000	10
246.000	12
247.000	16
248.000	18
249.000	21
250.000	25
251.000	34
252.000	43
253.000	49
254.000	60
255.000	67
256.000	77
257.000	78
258.000	73
259.000	69
260.000	66
261.000	53
262.000	43
263.000	35
264.000	30
265.000	20
266.000	19
267.000	14
268.000	16
269.000	15
270.000	15
271.000	14
272.000	18
273.000	17
274.000	19
275.000	19
276.000	21
277.000	19
278.000	18
279.000	19
280.000	20
281.000	20
282.000	24
283.000	27
284.000	33
285.000	37
286.000	42
287.000	47
288.000	56
289.000	59
290.000	63
291.000	61
292.000	51
293.000	45
294.000	41
295.000	39
296.000	27
297.000	25
298.000	20
299.000	18
300.000	20
301.000	18
302.000	17
303.000	17
304.000	16
305.000	16
306.000	19
307.000	22
308.000	23
309.000	25
310.000	25
311.000	25
312.000	32
313.000	35
314.000	45
315.000	53
316.000	67
317.000	90
318.000	112
319.000	144
320.000	184
321.000	225
322.000	259
323.000	278
324.000	293
325.000	302
326.000	281
327.000	248
328.000	223
329.000	185
330.000	149
331.000	109
332.000	82
333.000	59
334.000	50
335.000	37
336.000	30
337.000	30
338.000	32
339.000	30
340.000	34
341.000	39
342.000	44
343.000	55
344.000	84
345.000	106
346.000	145
347.000	208
348.000	340
349.000	524
350.000	802
351.000	1253
352.000	1917
353.000	2829
354.000	3965
355.000	5443
356.000	7109
357.000	8932
358.000	10711
359.000	12153
360.000	13326
361.000	13817
362.000	13728
363.000	13004
364.000	11780
365.000	10195
366.000	8321
367.000	6590
368.000	4923
369.000	3595
370.000	2428
371.000	1617
372.000	1004
373.000	633
374.000	382
375.000	245
376.000	158
377.000	126
378.000	114
379.000	121
380.000	137
381.000	191
382.000	249
383.000	348
384.000	450
385.000	606
386.000	792
387.000	1033
388.000	1287
389.000	1518
390.000	1726
391.000	1897
392.000	1995
393.000	2023
394.000	1939
395.000	1809
396.000	1624
397.000	1374
398.000	1143
399.000	884
400.000	656
401.000	482
402.000	331
403.000	217
404.000	144
405.000	91
406.000	56
407.000	33
408.000	20
409.000	13
410.000	10
411.000	8
412.000	6
413.000	5
414.000	6
415.000	6
416.000	6
417.000	6
418.000	7
419.000	6
420.000	6
421.000	6
422.000	7
423.000	6
424.000	6
425.000	7
426.000	9
427.000	10
428.000	11
429.000	17
430.000	24
431.000	28
432.000	39
433.000	50
434.000	65
435.000	88
436.000	104
437.000	117
438.000	129
439.000	147
440.000	150
441.000	159
442.000	158
443.000	158
444.000	135
445.000	114
446.000	104
447.000	86
448.000	71
449.000	57
450.000	53
451.000	39
452.000	37
453.000	33
454.000	32
455.000	29
456.000	27
457.000	25
458.000	23
459.000	23
460.000	19
461.000	19
462.000	14
463.000	14
464.000	13
465.000	13
466.000	13
467.000	13
468.000	15
469.000	14
470.000	14
471.000	16
472.000	16
473.000	21
474.000	24
475.000	27
476.000	26
477.000	28
478.000	32
479.000	32
480.000	39
481.000	43
482.000	40
483.000	40
484.000	40
485.000	36
486.000	35
487.000	31
488.000	29
489.000	24
490.000	19
491.000	19
492.000	16
493.000	12
494.000	13
495.000	12
496.000	12
497.000	12
498.000	13
499.000	11
500.000	11
501.000	12
502.000	13
503.000	12
504.000	12
505.000	11
506.000	11
507.000	13
508.000	12
509.000	16
510.000	14
511.000	14
512.000	15
513.000	16
514.000	18
515.000	18
516.000	19
517.000	18
518.000	20
519.000	20
520.000	19
521.000	23
522.000	24
523.000	28
524.000	31
525.000	31
526.000	33
527.000	32
528.000	36
529.000	34
530.000	32
531.000	32
532.000	31
533.000	28
534.000	26
535.000	23
536.000	22
537.000	20
538.000	19
539.000	21
540.000	20
541.000	18
542.000	19
543.000	16
544.000	18
545.000	18
546.000	18
547.000	18
548.000	19
549.000	18
550.000	20
551.000	19
552.000	20
553.000	20
554.000	21
555.000	22
556.000	21
557.000	19
558.000	22
559.000	23
560.000	22
561.000	25
562.000	23
563.000	26
564.000	26
565.000	30
566.000	35
567.000	41
568.000	41
569.000	50
570.000	52
571.000	63
572.000	69
573.000	78
574.000	76
575.000	83
576.000	77
577.000	84
578.000	79
579.000	74
580.000	68
581.000	62
582.000	58
583.000	53
584.000	46
585.000	41
586.000	36
587.000	30
588.000	30
589.000	25
590.000	26
591.000	24
592.000	23
593.000	24
594.000	23
595.000	23
596.000	24
597.000	23
598.000	27
599.000	26
600.000	31
601.000	27
602.000	31
603.000	31
604.000	41
605.000	45
606.000	50
607.000	68
608.000	96
609.000	126
610.000	181
611.000	259
612.000	375
613.000	519
614.000	715
615.000	981
616.000	1281
617.000	1698
618.000	2078
619.000	2560
620.000	3003
621.000	3493
622.000	3946
623.000	4273
624.000	4533
625.000	4606
626.000	4598
627.000	4459
628.000	4145
629.000	3796
630.000	3328
631.000	2853
632.000	2388
633.000	1922
634.000	1507
635.000	1151
636.000	879
637.000	628
638.000	460
639.000	324
640.000	233
641.000	161
642.000	119
643.000	85
644.000	71
645.000	61
646.000	53
647.000	48
648.000	45
649.000	45
650.000	43
651.000	42
652.000	44
653.000	43
654.000	43
655.000	43
656.000	40
657.000	44
658.000	44
659.000	46
660.000	47
661.000	47
662.000	47
663.000	48
664.000	47
665.000	50
666.000	48
667.000	55
668.000	54
669.000	63
670.000	63
671.000	72
672.000	77
673.000	84
674.000	95
675.000	109
676.000	143
677.000	161
678.000	196
679.000	241
680.000	297
681.000	356
682.000	414
683.000	494
684.000	559
685.000	622
686.000	665
687.000	726
688.000	758
689.000	777
690.000	763
691.000	733
692.000	699
693.000	632
694.000	563
695.000	491
696.000	430
697.000	357
698.000	300
699.000	245
700.000	190
701.000	148
702.000	124
703.000	101
704.000	80
705.000	65
706.000	56
707.000	53
708.000	46
709.000	48
710.000	48
711.000	43
712.000	44
713.000	47
714.000	47
715.000	49
716.000	54
717.000	56
718.000	52
719.000	57
720.000	61
721.000	64
722.000	62
723.000	63
724.000	70
725.000	72
726.000	70
727.000	72
728.000	67
729.000	75
730.000	71
731.000	69
732.000	73
733.000	64
734.000	63
735.000	63
736.000	56
737.000	61
738.000	57
739.000	55
740.000	57
741.000	56
742.000	52
743.000	53
744.000	55
745.000	53
746.000	46
747.000	51
748.000	52
749.000	53
750.000	52
751.000	56
752.000	50
753.000	55
754.000	51
755.000	54
756.000	50
757.000	52
758.000	55
759.000	50
760.000	57
761.000	54
762.000	55
763.000	51
764.000	55
765.000	54
766.000	50
767.000	53
768.000	60
769.000	59
770.000	58
771.000	64
772.000	61
773.000	67
774.000	64
775.000	63
776.000	71
777.000	68
778.000	72
779.000	73
780.000	76
781.000	79
782.000	86
783.000	85
784.000	90
785.000	91
786.000	95
787.000	101
788.000	97
789.000	98
790.000	102
791.000	107
792.000	109
793.000	111
794.000	109
795.000	107
796.000	110
797.000	108
798.000	109
799.000	113
800.000	120
801.000	121
802.000	114
803.000	116
804.000	117
805.000	120
806.000	128
807.000	131
808.000	139
809.000	154
810.000	153
811.000	167
812.000	185
813.000	190
814.000	205
815.000	218
816.000	230
817.000	234
818.000	244
819.000	252
820.000	247
821.000	246
822.000	239
823.000	226
824.000	218
825.000	195
826.000	192
827.000	170
828.000	154
829.000	151
830.000	133
831.000	122
832.000	118
833.000	111
834.000	109
835.000	105
836.000	102
837.000	99
838.000	98
839.000	100
840.000	97
841.000	100
842.000	103
843.000	106
844.000	104
845.000	105
846.000	103
847.000	97
848.000	104
849.000	99
850.000	99
851.000	99
852.000	94
853.000	92
854.000	94
855.000	95
856.000	88
857.000	94
858.000	91
859.000	92
860.000	95
861.000	92
862.000	96
863.000	91
864.000	96
865.000	92
866.000	93
867.000	93
868.000	95
869.000	97
870.000	99
871.000	97
872.000	95
873.000	94
874.000	91
875.000	91
876.000	100
877.000	95
878.000	98
879.000	98
880.000	98
881.000	96
882.000	96
883.000	92
884.000	98
885.000	98
886.000	92
887.000	100
888.000	96
889.000	97
890.000	99
891.000	104
892.000	106
893.000	108
894.000	106
895.000	105
896.000	114
897.000	115
898.000	116
899.000	115
900.000	117
901.000	119
902.000	123
903.000	128
904.000	129
905.000	124
906.000	133
907.000	133
908.000	141
909.000	138
910.000	137
911.000	138
912.000	138
913.000	139
914.000	140
915.000	136
916.000	141
917.000	142
918.000	142
919.000	145
920.000	149
921.000	141
922.000	143
923.000	152
924.000	154
925.000	154
926.000	151
927.000	155
928.000	158
929.000	154
930.000	158
931.000	160
932.000	167
933.000	181
934.000	178
935.000	181
936.000	189
937.000	191
938.000	199
939.000	204
940.000	217
941.000	215
942.000	222
943.000	216
944.000	218
945.000	221
946.000	221
947.000	218
948.000	206
949.000	199
950.000	192
951.000	188
952.000	183
953.000	176
954.000	170
955.000	172
956.000	159
957.000	154
958.000	156
959.000	156
960.000	148
961.000	142
962.000	146
963.000	154
964.000	157
965.000	154
966.000	156
967.000	152
968.000	159
969.000	165
970.000	161
971.000	161
972.000	163
973.000	158
974.000	155
975.000	156
976.000	153
977.000	150
978.000	151
979.000	149
980.000	143
981.000	139
982.000	139
983.000	131
984.000	125
985.000	130
986.000	117
987.000	123
988.000	128
989.000	120
990.000	122
991.000	119
992.000	121
993.000	122
994.000	120
995.000	120
996.000	117
997.000	116
998.000	119
999.000	110
1000.000	114
1001.000	113
1002.000	126
1003.000	119
1004.000	116
1005.000	119
1006.000	118
1007.000	112
1008.000	116
1009.000	111
1010.000	110
1011.000	113
1012.000	112
1013.000	118
1014.000	115
1015.000	114
1016.000	113
1017.000	119
1018.000	124
1019.000	112
1020.000	122
1021.000	121
1022.000	120
1023.000	119
1024.000	114
1025.000	129
1026.000	119
1027.000	124
1028.000	123
1029.000	129
1030.000	126
1031.000	119
1032.000	117
1033.000	119
1034.000	126
1035.000	122
1036.000	120
1037.000	124
1038.000	117
1039.000	123
1040.000	125
1041.000	120
1042.000	123
1043.000	128
1044.000	129
1045.000	123
1046.000	125
1047.000	125
1048.000	132
1049.000	126
1050.000	125
1051.000	129
1052.000	128
1053.000	128
1054.000	125
1055.000	134
1056.000	130
1057.000	136
1058.000	130
1059.000	130
1060.000	129
1061.000	131
1062.000	134
1063.000	132
1064.000	130
1065.000	140
1066.000	133
1067.000	136
1068.000	131
1069.000	135
1070.000	135
1071.000	127
1072.000	139
1073.000	133
1074.000	134
1075.000	136
1076.000	128
1077.000	134
1078.000	136
1079.000	139
1080.000	132
1081.000	135
1082.000	134
1083.000	135
1084.000	135
1085.000	131
1086.000	132
1087.000	131
1088.000	142
1089.000	136
1090.000	135
1091.000	141
1092.000	143
1093.000	137
1094.000	144
1095.000	143
1096.000	155
1097.000	154
1098.000	137
1099.000	148
1100.000	146
1101.000	152
1102.000	143
1103.000	146
1104.000	151
1105.000	145
1106.000	149
1107.000	145
1108.000	147
1109.000	140
1110.000	143
1111.000	145
1112.000	144
1113.000	140
1114.000	136
1115.000	146
1116.000	135
1117.000	143
1118.000	143
1119.000	139
1120.000	135
1121.000	139
1122.000	131
1123.000	139
1124.000	144
1125.000	142
1126.000	141
1127.000	146
1128.000	136
1129.000	141
1130.000	139
1131.000	140
1132.000	140
1133.000	137
1134.000	145
1135.000	147
1136.000	137
1137.000	146
1138.000	141
1139.000	148
1140.000	144
1141.000	140
1142.000	147
1143.000	141
1144.000	143
1145.000	141
1146.000	139
1147.000	138
1148.000	149
1149.000	151
1150.000	143
1151.000	146
1152.000	150
1153.000	144
1154.000	145
1155.000	146
1156.000	153
1157.000	145
1158.000	152
1159.000	154
1160.000	161
1161.000	150
1162.000	153
1163.000	155
1164.000	152
1165.000	152
1166.000	158
1167.000	147
1168.000	149
1169.000	148
1170.000	150
1171.000	151
1172.000	145
1173.000	144
1174.000	147
1175.000	138
1176.000	145
1177.000	145
1178.000	138
1179.000	146
1180.000	146
1181.000	141
1182.000	140
1183.000	137
1184.000	136
1185.000	138
1186.000	138
1187.000	139
1188.000	141
1189.000	138
1190.000	141
1191.000	137
1192.000	134
1193.000	146
1194.000	138
1195.000	144
1196.000	138
1197.000	143
1198.000	147
1199.000	142
1200.000	139
1201.000	143
1202.000	137
1203.000	146
1204.000	136
1205.000	146
1206.000	147
1207.000	136
1208.000	141
1209.000	139
1210.000	141
1211.000	137
1212.000	142
1213.000	145
1214.000	139
1215.000	146
1216.000	150
1217.000	149
1218.000	144
1219.000	152
1220.000	142
1221.000	149
1222.000	140
1223.000	143
1224.000	145
1225.000	150
1226.000	148
1227.000	144
1228.000	149
1229.000	149
1230.000	142
1231.000	148
1232.000	146
1233.000	148
1234.000	150
1235.000	145
1236.000	149
1237.000	147
1238.000	152
1239.000	149
1240.000	146
1241.000	152
1242.000	146
1243.000	142
1244.000	146
1245.000	149
1246.000	144
1247.000	150
1248.000	147
1249.000	148
1250.000	144
1251.000	144
1252.000	148
1253.000	146
1254.000	151
1255.000	148
1256.000	142
1257.000	149
1258.000	145
1259.000	150
1260.000	150
1261.000	150
1262.000	147
1263.000	150
1264.000	153
1265.000	147
1266.000	148
1267.000	152
1268.000	146
1269.000	155
1270.000	147
1271.000	144
1272.000	148
1273.000	152
1274.000	149
1275.000	151
1276.000	148
1277.000	150
1278.000	149
1279.000	146
1280.000	151
1281.000	147
1282.000	151
1283.000	161
1284.000	147
1285.000	147
1286.000	147
1287.000	161
1288.000	150
1289.000	153
1290.000	161
1291.000	157
1292.000	162
1293.000	157
1294.000	158
1295.000	168
1296.000	166
1297.000	162
1298.000	171
1299.000	171
1300.000	173
1301.000	169
1302.000	178
1303.000	174
1304.000	175
1305.000	169
1306.000	175
1307.000	170
1308.000	172
1309.000	157
1310.000	174
1311.000	176
1312.000	173
1313.000	165
1314.000	164
1315.000	167
1316.000	158
1317.000	157
1318.000	162
1319.000	164
1320.000	165
1321.000	162
1322.000	153
1323.000	159
1324.000	153
1325.000	159
1326.000	155
1327.000	158
1328.000	150
1329.000	152
1330.000	153
1331.000	149
1332.000	158
1333.000	156
1334.000	157
1335.000	155
1336.000	156
1337.000	150
1338.000	157
1339.000	150
1340.000	158
1341.000	158
1342.000	150
1343.000	156
1344.000	159
1345.000	154
1346.000	151
1347.000	153
1348.000	164
1349.000	159
1350.000	161
1351.000	157
1352.000	156
1353.000	161
1354.000	164
1355.000	166
1356.000	163
1357.000	176
1358.000	181
1359.000	180
1360.000	195
1361.000	207
1362.000	223
1363.000	230
1364.000	251
1365.000	270
1366.000	288
1367.000	309
1368.000	341
1369.000	365
1370.000	394
1371.000	421
1372.000	459
1373.000	478
1374.000	514
1375.000	554
1376.000	553
1377.000	577
1378.000	584
1379.000	589
1380.000	611
1381.000	592
1382.000	585
1383.000	566
1384.000	538
1385.000	530
1386.000	505
1387.000	459
1388.000	442
1389.000	408
1390.000	375
1391.000	342
1392.000	318
1393.000	295
1394.000	277
1395.000	253
1396.000	232
1397.000	214
1398.000	204
1399.000	196
1400.000	182
1401.000	170
1402.000	162
1403.000	161
1404.000	164
1405.000	154
1406.000	161
1407.000	157
1408.000	152
1409.000	153
1410.000	152
1411.000	153
1412.000	155
1413.000	160
1414.000	155
1415.000	148
1416.000	151
1417.000	155
1418.000	158
1419.000	153
1420.000	151
1421.000	152
1422.000	155
1423.000	152
1424.000	148
1425.000	157
1426.000	157
1427.000	151
1428.000	148
1429.000	147
1430.000	155
1431.000	151
1432.000	158
1433.000	152
1434.000	152
1435.000	159
1436.000	152
1437.000	159
1438.000	155
1439.000	156
1440.000	149
1441.000	160
1442.000	158
1443.000	162
1444.000	156
1445.000	159
1446.000	160
1447.000	157
1448.000	166
1449.000	163
1450.000	158
1451.000	163
1452.000	163
1453.000	166
1454.000	160
1455.000	167
1456.000	166
1457.000	172
1458.000	166
1459.000	163
1460.000	168
1461.000	164
1462.000	162
1463.000	167
1464.000	168
1465.000	159
1466.000	164
1467.000	167
1468.000	162
1469.000	162
1470.000	157
1471.000	160
1472.000	159
1473.000	156
1474.000	165
1475.000	161
1476.000	153
1477.000	159
1478.000	157
1479.000	158
1480.000	160
1481.000	156
1482.000	157
1483.000	157
1484.000	157
1485.000	158
1486.000	154
1487.000	159
1488.000	156
1489.000	156
1490.000	166
1491.000	161
1492.000	161
1493.000	159
1494.000	159
1495.000	157
1496.000	158
1497.000	168
1498.000	159
1499.000	161
1500.000	159
1501.000	160
1502.000	168
1503.000	163
1504.000	163
1505.000	161
1506.000	171
1507.000	166
1508.000	162
1509.000	164
1510.000	169
1511.000	172
1512.000	165
1513.000	174
1514.000	176
1515.000	167
1516.000	165
1517.000	175
1518.000	178
1519.000	170
1520.000	173
1521.000	174
1522.000	182
1523.000	182
1524.000	192
1525.000	191
1526.000	201
1527.000	199
1528.000	206
1529.000	206
1530.000	217
1531.000	222
1532.000	231
1533.000	238
1534.000	237
1535.000	244
1536.000	249
1537.000	259
1538.000	259
1539.000	269
1540.000	272
1541.000	284
1542.000	282
1543.000	269
1544.000	283
1545.000	283
1546.000	271
1547.000	276
1548.000	272
1549.000	269
1550.000	265
1551.000	256
1552.000	250
1553.000	258
1554.000	241
1555.000	247
1556.000	239
1557.000	242
1558.000	240
1559.000	230
1560.000	237
1561.000	234
1562.000	238
1563.000	238
1564.000	246
1565.000	249
1566.000	251
1567.000	258
1568.000	250
1569.000	258
1570.000	266
1571.000	274
1572.000	272
1573.000	282
1574.000	290
1575.000	301
1576.000	303
1577.000	310
1578.000	321
1579.000	330
1580.000	329
1581.000	351
1582.000	353
1583.000	359
1584.000	364
1585.000	377
1586.000	383
1587.000	384
1588.000	405
1589.000	417
1590.000	417
1591.000	425
1592.000	443
1593.000	467
1594.000	475
1595.000	486
1596.000	489
1597.000	483
1598.000	508
1599.000	502
1600.000	515
1601.000	513
1602.000	522
1603.000	530
1604.000	539
1605.000	524
1606.000	523
1607.000	545
1608.000	542
1609.000	541
1610.000	542
1611.000	533
1612.000	531
1613.000	523
1614.000	526
1615.000	515
1616.000	523
1617.000	523
1618.000	516
1619.000	495
1620.000	493
1621.000	481
1622.000	470
1623.000	449
1624.000	461
1625.000	439
1626.000	427
1627.000	423
1628.000	416
1629.000	413
1630.000	392
1631.000	389
1632.000	374
1633.000	369
1634.000	358
1635.000	353
1636.000	338
1637.000	330
1638.000	331
1639.000	309
1640.000	307
1641.000	292
1642.000	280
1643.000	277
1644.000	276
1645.000	267
1646.000	257
1647.000	249
1648.000	240
1649.000	241
1650.000	236
1651.000	224
1652.000	225
1653.000	216
1654.000	218
1655.000	207
1656.000	203
1657.000	200
1658.000	188
1659.000	183
1660.000	189
1661.000	188
1662.000	182
1663.000	185
1664.000	175
1665.000	172
1666.000	175
1667.000	167
1668.000	169
1669.000	174
1670.000	173
1671.000	159
1672.000	171
1673.000	158
1674.000	172
1675.000	167
1676.000	181
1677.000	177
1678.000	182
1679.000	192
1680.000	202
1681.000	207
1682.000	217
1683.000	240
1684.000	242
1685.000	260
1686.000	263
1687.000	286
1688.000	310
1689.000	334
1690.000	355
1691.000	368
1692.000	395
1693.000	416
1694.000	416
1695.000	452
1696.000	455
1697.000	464
1698.000	481
1699.000	498
1700.000	508
1701.000	512
1702.000	519
1703.000	516
1704.000	517
1705.000	485
1706.000	477
1707.000	463
1708.000	443
1709.000	422
1710.000	405
1711.000	370
1712.000	360
1713.000	322
1714.000	305
1715.000	295
1716.000	272
1717.000	244
1718.000	224
1719.000	216
1720.000	209
1721.000	184
1722.000	169
1723.000	163
1724.000	165
1725.000	153
1726.000	148
1727.000	147
1728.000	147
1729.000	135
1730.000	139
1731.000	132
1732.000	135
1733.000	130
1734.000	133
1735.000	131
1736.000	134
1737.000	131
1738.000	130
1739.000	132
1740.000	131
1741.000	133
1742.000	128
1743.000	132
1744.000	128
1745.000	131
1746.000	136
1747.000	126
1748.000	126
1749.000	127
1750.000	127
1751.000	134
1752.000	131
1753.000	129
1754.000	139
1755.000	137
1756.000	139
1757.000	135
1758.000	140
1759.000	139
1760.000	140
1761.000	142
1762.000	140
1763.000	141
1764.000	143
1765.000	144
1766.000	145
1767.000	142
1768.000	145
1769.000	153
1770.000	154
1771.000	149
1772.000	150
1773.000	156
1774.000	155
1775.000	162
1776.000	161
1777.000	158
1778.000	160
1779.000	170
1780.000	154
1781.000	168
1782.000	172
1783.000	169
1784.000	163
1785.000	170
1786.000	169
1787.000	167
1788.000	178
1789.000	182
1790.000	177
1791.000	169
1792.000	178
1793.000	169
1794.000	171
1795.000	174
1796.000	177
1797.000	180
1798.000	170
1799.000	172
1800.000	169
1801.000	172
1802.000	175
1803.000	162
1804.000	168
1805.000	164
1806.000	166
1807.000	166
1808.000	161
1809.000	163
1810.000	164
1811.000	162
1812.000	159
1813.000	149
1814.000	149
1815.000	152
1816.000	142
1817.000	148
1818.000	141
1819.000	140
1820.000	136
1821.000	143
1822.000	132
1823.000	128
1824.000	129
1825.000	128
1826.000	125
1827.000	123
1828.000	118
1829.000	118
1830.000	121
1831.000	116
1832.000	119
1833.000	117
1834.000	112
1835.000	115
1836.000	108
1837.000	112
1838.000	104
1839.000	108
1840.000	107
1841.000	101
1842.000	97
1843.000	98
1844.000	101
1845.000	98
1846.000	97
1847.000	86
1848.000	92
1849.000	90
1850.000	86
1851.000	92
1852.000	83
1853.000	85
1854.000	86
1855.000	86
1856.000	84
1857.000	83
1858.000	85
1859.000	78
1860.000	80
1861.000	78
1862.000	78
1863.000	78
1864.000	76
1865.000	75
1866.000	72
1867.000	75
1868.000	75
1869.000	74
1870.000	71
1871.000	75
1872.000	76
1873.000	72
1874.000	70
1875.000	70
1876.000	70
1877.000	72
1878.000	68
1879.000	74
1880.000	65
1881.000	68
1882.000	71
1883.000	69
1884.000	65
1885.000	70
1886.000	67
1887.000	68
1888.000	67
1889.000	73
1890.000	68
1891.000	70
1892.000	74
1893.000	72
1894.000	75
1895.000	75
1896.000	78
1897.000	83
1898.000	88
1899.000	86
1900.000	86
1901.000	93
1902.000	97
1903.000	95
1904.000	102
1905.000	104
1906.000	101
1907.000	105
1908.000	112
1909.000	110
1910.000	110
1911.000	114
1912.000	109
1913.000	111
1914.000	103
1915.000	107
1916.000	109
1917.000	104
1918.000	102
1919.000	97
1920.000	93
1921.000	89
1922.000	91
1923.000	81
1924.000	81
1925.000	77
1926.000	79
1927.000	74
1928.000	74
1929.000	65
1930.000	71
1931.000	67
1932.000	61
1933.000	59
1934.000	61
1935.000	63
1936.000	64
1937.000	59
1938.000	63
1939.000	63
1940.000	63
1941.000	64
1942.000	64
1943.000	64
1944.000	62
1945.000	61
1946.000	61
1947.000	59
1948.000	63
1949.000	63
1950.000	61
1951.000	55
1952.000	56
1953.000	56
1954.000	53
1955.000	56
1956.000	54
1957.000	54
1958.000	53
1959.000	54
1960.000	53
1961.000	49
1962.000	50
1963.000	47
1964.000	43
1965.000	50
1966.000	48
1967.000	45
1968.000	47
1969.000	44
1970.000	45
1971.000	47
1972.000	48
1973.000	44
1974.000	46
1975.000	42
1976.000	47
1977.000	49
1978.000	49
1979.000	46
1980.000	46
1981.000	45
1982.000	49
1983.000	47
1984.000	47
1985.000	47
1986.000	47
1987.000	45
1988.000	49
1989.000	44
1990.000	45
1991.000	45
1992.000	45
1993.000	46
1994.000	42
1995.000	46
1996.000	47
1997.000	48
1998.000	45
1999.000	44
2000.000	45
2001.000	45
2002.000	44
2003.000	45
2004.000	45
2005.000	46
2006.000	44
2007.000	48
2008.000	42
2009.000	44
2010.000	43
2011.000	40
2012.000	41
2013.000	40
2014.000	42
2015.000	44
2016.000	40
2017.000	44
2018.000	42
2019.000	44
2020.000	46
2021.000	45
2022.000	44
2023.000	43
2024.000	47
2025.000	44
2026.000	45
2027.000	45
2028.000	44
2029.000	43
2030.000	41
2031.000	42
2032.000	40
2033.000	41
2034.000	44
2035.000	43
2036.000	43
2037.000	46
2038.000	42
2039.000	41
2040.000	43
2041.000	42
2042.000	42
2043.000	42
2044.000	42
2045.000	42
2046.000	38
2047.000	43
2048.000	0
