Date:	22-Sep-20		Time:	10:49 PM		Version no:	0.00		Project name:	55		Sample name:	222		Section name:	section		Position	0.000000	mm	E0	0.000000	keV	E1	1.000000	keV/channel	sample surface	2.000000	cm	Tube anode:	Mo		Tube voltage:	30	kV	Tube current:	30	mA	gain	15		std. database			resultfile	result		matrix element	11		sample thickness	1.000000		air passage	0.560000	cm	comments	not in position		peaking_time	0.300000	m-sec	trigger_threshold	40.000000	V	mca_bin_width	2.000000	no:	number_mca_channels	2048.000000	no:	gap_time	2048.000000	m-sec	trigger_peaking_time	2048.000000	m-sec	GAINDAC	400		HIGHGAIN	400		TAURC	400		RCTAU	400		RCTAUFRAC	400		livetime	12.778311	seconds	runtime	15.000098	seconds	input_count_rate	8453.386602	cps	output_count_rate	7201.286285	cps	triggers	126178	seconds	events_in_run	98622	seconds	channel	content		1.000	0
2.000	0
3.000	0
4.000	0
5.000	0
6.000	0
7.000	0
8.000	0
9.000	0
10.000	0
11.000	0
12.000	0
13.000	0
14.000	0
15.000	0
16.000	0
17.000	0
18.000	0
19.000	0
20.000	0
21.000	0
22.000	0
23.000	0
24.000	0
25.000	0
26.000	0
27.000	0
28.000	0
29.000	0
30.000	0
31.000	0
32.000	0
33.000	0
34.000	0
35.000	0
36.000	0
37.000	0
38.000	0
39.000	0
40.000	0
41.000	0
42.000	0
43.000	0
44.000	0
45.000	0
46.000	0
47.000	1
48.000	0
49.000	1
50.000	1
51.000	1
52.000	2
53.000	4
54.000	4
55.000	5
56.000	8
57.000	10
58.000	12
59.000	23
60.000	25
61.000	28
62.000	35
63.000	36
64.000	33
65.000	35
66.000	32
67.000	34
68.000	31
69.000	31
70.000	28
71.000	30
72.000	30
73.000	28
74.000	27
75.000	26
76.000	28
77.000	30
78.000	31
79.000	31
80.000	30
81.000	29
82.000	28
83.000	29
84.000	29
85.000	30
86.000	31
87.000	28
88.000	25
89.000	26
90.000	28
91.000	25
92.000	26
93.000	24
94.000	26
95.000	25
96.000	24
97.000	24
98.000	23
99.000	24
100.000	24
101.000	26
102.000	21
103.000	21
104.000	20
105.000	20
106.000	22
107.000	20
108.000	20
109.000	21
110.000	19
111.000	20
112.000	19
113.000	21
114.000	19
115.000	18
116.000	22
117.000	20
118.000	20
119.000	18
120.000	18
121.000	19
122.000	17
123.000	19
124.000	20
125.000	18
126.000	17
127.000	15
128.000	18
129.000	18
130.000	16
131.000	17
132.000	15
133.000	20
134.000	17
135.000	16
136.000	18
137.000	16
138.000	18
139.000	18
140.000	18
141.000	20
142.000	24
143.000	26
144.000	31
145.000	27
146.000	31
147.000	28
148.000	26
149.000	26
150.000	25
151.000	26
152.000	23
153.000	21
154.000	20
155.000	21
156.000	19
157.000	19
158.000	17
159.000	18
160.000	16
161.000	14
162.000	19
163.000	22
164.000	27
165.000	33
166.000	44
167.000	56
168.000	70
169.000	78
170.000	91
171.000	89
172.000	85
173.000	72
174.000	65
175.000	56
176.000	45
177.000	37
178.000	31
179.000	25
180.000	27
181.000	25
182.000	28
183.000	34
184.000	38
185.000	43
186.000	61
187.000	77
188.000	96
189.000	103
190.000	112
191.000	113
192.000	115
193.000	101
194.000	89
195.000	75
196.000	60
197.000	43
198.000	33
199.000	25
200.000	17
201.000	17
202.000	14
203.000	14
204.000	14
205.000	15
206.000	13
207.000	15
208.000	13
209.000	13
210.000	12
211.000	15
212.000	16
213.000	14
214.000	13
215.000	14
216.000	18
217.000	20
218.000	17
219.000	23
220.000	24
221.000	22
222.000	29
223.000	27
224.000	27
225.000	26
226.000	23
227.000	23
228.000	20
229.000	18
230.000	17
231.000	14
232.000	13
233.000	15
234.000	12
235.000	12
236.000	12
237.000	13
238.000	12
239.000	12
240.000	11
241.000	11
242.000	12
243.000	12
244.000	12
245.000	13
246.000	16
247.000	20
248.000	28
249.000	40
250.000	57
251.000	74
252.000	99
253.000	121
254.000	149
255.000	177
256.000	188
257.000	194
258.000	190
259.000	171
260.000	157
261.000	120
262.000	98
263.000	76
264.000	52
265.000	43
266.000	31
267.000	26
268.000	23
269.000	24
270.000	22
271.000	26
272.000	32
273.000	27
274.000	34
275.000	33
276.000	28
277.000	33
278.000	30
279.000	28
280.000	29
281.000	25
282.000	30
283.000	31
284.000	34
285.000	43
286.000	49
287.000	54
288.000	66
289.000	70
290.000	66
291.000	68
292.000	61
293.000	57
294.000	45
295.000	36
296.000	32
297.000	23
298.000	22
299.000	18
300.000	17
301.000	14
302.000	14
303.000	13
304.000	15
305.000	16
306.000	17
307.000	17
308.000	20
309.000	23
310.000	27
311.000	29
312.000	33
313.000	42
314.000	54
315.000	77
316.000	103
317.000	144
318.000	203
319.000	262
320.000	327
321.000	408
322.000	466
323.000	507
324.000	536
325.000	555
326.000	515
327.000	480
328.000	410
329.000	349
330.000	266
331.000	200
332.000	144
333.000	108
334.000	70
335.000	55
336.000	35
337.000	31
338.000	28
339.000	25
340.000	28
341.000	32
342.000	39
343.000	51
344.000	68
345.000	93
346.000	127
347.000	178
348.000	258
349.000	398
350.000	580
351.000	865
352.000	1277
353.000	1854
354.000	2596
355.000	3519
356.000	4594
357.000	5775
358.000	6918
359.000	7889
360.000	8562
361.000	8948
362.000	8957
363.000	8409
364.000	7614
365.000	6619
366.000	5397
367.000	4311
368.000	3208
369.000	2312
370.000	1580
371.000	1041
372.000	652
373.000	412
374.000	255
375.000	157
376.000	111
377.000	80
378.000	78
379.000	88
380.000	100
381.000	130
382.000	174
383.000	225
384.000	311
385.000	416
386.000	546
387.000	697
388.000	848
389.000	994
390.000	1149
391.000	1274
392.000	1321
393.000	1379
394.000	1339
395.000	1230
396.000	1087
397.000	943
398.000	777
399.000	594
400.000	456
401.000	334
402.000	229
403.000	156
404.000	104
405.000	71
406.000	47
407.000	26
408.000	20
409.000	17
410.000	11
411.000	10
412.000	9
413.000	10
414.000	8
415.000	8
416.000	10
417.000	11
418.000	10
419.000	9
420.000	10
421.000	10
422.000	9
423.000	11
424.000	13
425.000	14
426.000	16
427.000	20
428.000	30
429.000	39
430.000	55
431.000	81
432.000	106
433.000	146
434.000	191
435.000	244
436.000	296
437.000	351
438.000	403
439.000	433
440.000	475
441.000	481
442.000	479
443.000	452
444.000	402
445.000	356
446.000	291
447.000	244
448.000	208
449.000	159
450.000	125
451.000	103
452.000	90
453.000	70
454.000	63
455.000	61
456.000	57
457.000	49
458.000	44
459.000	46
460.000	37
461.000	38
462.000	28
463.000	27
464.000	26
465.000	22
466.000	26
467.000	28
468.000	27
469.000	31
470.000	31
471.000	36
472.000	41
473.000	46
474.000	51
475.000	59
476.000	67
477.000	71
478.000	78
479.000	89
480.000	90
481.000	101
482.000	99
483.000	103
484.000	99
485.000	91
486.000	84
487.000	73
488.000	66
489.000	56
490.000	50
491.000	43
492.000	37
493.000	32
494.000	30
495.000	25
496.000	25
497.000	24
498.000	21
499.000	24
500.000	28
501.000	24
502.000	23
503.000	25
504.000	27
505.000	25
506.000	28
507.000	30
508.000	28
509.000	30
510.000	29
511.000	31
512.000	36
513.000	37
514.000	34
515.000	36
516.000	38
517.000	38
518.000	39
519.000	43
520.000	44
521.000	48
522.000	51
523.000	47
524.000	50
525.000	53
526.000	57
527.000	62
528.000	64
529.000	61
530.000	62
531.000	56
532.000	55
533.000	49
534.000	49
535.000	47
536.000	41
537.000	41
538.000	39
539.000	35
540.000	34
541.000	32
542.000	30
543.000	28
544.000	31
545.000	30
546.000	31
547.000	31
548.000	29
549.000	32
550.000	30
551.000	33
552.000	29
553.000	34
554.000	36
555.000	36
556.000	32
557.000	37
558.000	39
559.000	38
560.000	37
561.000	47
562.000	46
563.000	53
564.000	62
565.000	79
566.000	93
567.000	114
568.000	131
569.000	166
570.000	199
571.000	229
572.000	247
573.000	278
574.000	302
575.000	313
576.000	318
577.000	316
578.000	308
579.000	286
580.000	256
581.000	230
582.000	203
583.000	174
584.000	141
585.000	118
586.000	103
587.000	85
588.000	73
589.000	64
590.000	57
591.000	51
592.000	53
593.000	48
594.000	48
595.000	51
596.000	47
597.000	46
598.000	47
599.000	54
600.000	57
601.000	57
602.000	64
603.000	66
604.000	79
605.000	89
606.000	107
607.000	137
608.000	181
609.000	259
610.000	356
611.000	509
612.000	725
613.000	1022
614.000	1404
615.000	1887
616.000	2501
617.000	3259
618.000	4104
619.000	5012
620.000	5942
621.000	6844
622.000	7675
623.000	8343
624.000	8794
625.000	9008
626.000	8981
627.000	8699
628.000	8150
629.000	7414
630.000	6554
631.000	5583
632.000	4645
633.000	3817
634.000	2957
635.000	2278
636.000	1731
637.000	1254
638.000	900
639.000	631
640.000	453
641.000	314
642.000	229
643.000	174
644.000	133
645.000	107
646.000	97
647.000	81
648.000	78
649.000	78
650.000	73
651.000	76
652.000	72
653.000	73
654.000	71
655.000	72
656.000	74
657.000	77
658.000	73
659.000	75
660.000	79
661.000	80
662.000	83
663.000	84
664.000	83
665.000	90
666.000	91
667.000	96
668.000	102
669.000	100
670.000	111
671.000	119
672.000	137
673.000	155
674.000	179
675.000	209
676.000	247
677.000	304
678.000	386
679.000	463
680.000	565
681.000	676
682.000	794
683.000	950
684.000	1067
685.000	1207
686.000	1338
687.000	1416
688.000	1449
689.000	1485
690.000	1491
691.000	1431
692.000	1354
693.000	1236
694.000	1114
695.000	969
696.000	845
697.000	703
698.000	571
699.000	456
700.000	365
701.000	292
702.000	228
703.000	172
704.000	143
705.000	121
706.000	109
707.000	91
708.000	81
709.000	77
710.000	73
711.000	71
712.000	73
713.000	74
714.000	75
715.000	73
716.000	82
717.000	79
718.000	82
719.000	80
720.000	85
721.000	86
722.000	89
723.000	93
724.000	101
725.000	99
726.000	105
727.000	111
728.000	105
729.000	108
730.000	112
731.000	115
732.000	110
733.000	110
734.000	105
735.000	102
736.000	97
737.000	95
738.000	96
739.000	90
740.000	96
741.000	85
742.000	83
743.000	80
744.000	83
745.000	85
746.000	83
747.000	85
748.000	80
749.000	85
750.000	80
751.000	83
752.000	88
753.000	87
754.000	83
755.000	85
756.000	90
757.000	87
758.000	82
759.000	91
760.000	84
761.000	84
762.000	88
763.000	90
764.000	89
765.000	90
766.000	92
767.000	93
768.000	99
769.000	97
770.000	101
771.000	102
772.000	108
773.000	108
774.000	103
775.000	110
776.000	117
777.000	120
778.000	133
779.000	133
780.000	141
781.000	132
782.000	144
783.000	146
784.000	156
785.000	156
786.000	160
787.000	166
788.000	173
789.000	169
790.000	176
791.000	183
792.000	181
793.000	177
794.000	182
795.000	180
796.000	185
797.000	183
798.000	181
799.000	188
800.000	180
801.000	182
802.000	188
803.000	179
804.000	193
805.000	191
806.000	193
807.000	202
808.000	204
809.000	220
810.000	229
811.000	237
812.000	257
813.000	275
814.000	275
815.000	294
816.000	318
817.000	326
818.000	316
819.000	330
820.000	328
821.000	329
822.000	327
823.000	300
824.000	284
825.000	277
826.000	264
827.000	235
828.000	215
829.000	202
830.000	189
831.000	174
832.000	169
833.000	164
834.000	158
835.000	159
836.000	166
837.000	158
838.000	163
839.000	164
840.000	168
841.000	151
842.000	175
843.000	169
844.000	164
845.000	172
846.000	164
847.000	165
848.000	164
849.000	162
850.000	153
851.000	151
852.000	146
853.000	143
854.000	144
855.000	143
856.000	141
857.000	140
858.000	138
859.000	139
860.000	137
861.000	138
862.000	135
863.000	138
864.000	137
865.000	134
866.000	138
867.000	140
868.000	141
869.000	139
870.000	133
871.000	143
872.000	141
873.000	146
874.000	139
875.000	138
876.000	142
877.000	139
878.000	144
879.000	147
880.000	142
881.000	143
882.000	144
883.000	147
884.000	143
885.000	154
886.000	153
887.000	152
888.000	147
889.000	152
890.000	152
891.000	155
892.000	160
893.000	157
894.000	163
895.000	166
896.000	176
897.000	170
898.000	178
899.000	178
900.000	174
901.000	187
902.000	192
903.000	186
904.000	202
905.000	196
906.000	192
907.000	205
908.000	202
909.000	207
910.000	198
911.000	206
912.000	207
913.000	213
914.000	220
915.000	212
916.000	208
917.000	218
918.000	215
919.000	220
920.000	218
921.000	227
922.000	223
923.000	220
924.000	224
925.000	225
926.000	237
927.000	233
928.000	232
929.000	230
930.000	240
931.000	244
932.000	252
933.000	259
934.000	267
935.000	265
936.000	272
937.000	282
938.000	289
939.000	289
940.000	292
941.000	293
942.000	306
943.000	296
944.000	319
945.000	297
946.000	298
947.000	286
948.000	287
949.000	284
950.000	259
951.000	257
952.000	252
953.000	245
954.000	242
955.000	229
956.000	225
957.000	216
958.000	215
959.000	208
960.000	206
961.000	214
962.000	206
963.000	201
964.000	207
965.000	211
966.000	207
967.000	209
968.000	221
969.000	217
970.000	219
971.000	217
972.000	220
973.000	220
974.000	216
975.000	216
976.000	212
977.000	203
978.000	194
979.000	196
980.000	201
981.000	191
982.000	189
983.000	190
984.000	184
985.000	178
986.000	175
987.000	176
988.000	170
989.000	177
990.000	167
991.000	166
992.000	166
993.000	163
994.000	171
995.000	160
996.000	167
997.000	173
998.000	162
999.000	169
1000.000	169
1001.000	166
1002.000	164
1003.000	162
1004.000	166
1005.000	164
1006.000	161
1007.000	157
1008.000	161
1009.000	165
1010.000	169
1011.000	163
1012.000	169
1013.000	163
1014.000	161
1015.000	160
1016.000	174
1017.000	166
1018.000	163
1019.000	166
1020.000	172
1021.000	168
1022.000	167
1023.000	160
1024.000	171
1025.000	170
1026.000	179
1027.000	177
1028.000	175
1029.000	172
1030.000	169
1031.000	164
1032.000	175
1033.000	178
1034.000	173
1035.000	177
1036.000	173
1037.000	175
1038.000	175
1039.000	177
1040.000	178
1041.000	176
1042.000	184
1043.000	179
1044.000	183
1045.000	178
1046.000	186
1047.000	192
1048.000	185
1049.000	182
1050.000	187
1051.000	185
1052.000	184
1053.000	193
1054.000	188
1055.000	178
1056.000	196
1057.000	190
1058.000	187
1059.000	203
1060.000	189
1061.000	198
1062.000	191
1063.000	185
1064.000	191
1065.000	196
1066.000	193
1067.000	201
1068.000	188
1069.000	194
1070.000	194
1071.000	196
1072.000	193
1073.000	195
1074.000	193
1075.000	198
1076.000	198
1077.000	191
1078.000	194
1079.000	187
1080.000	193
1081.000	191
1082.000	184
1083.000	194
1084.000	194
1085.000	196
1086.000	195
1087.000	191
1088.000	190
1089.000	203
1090.000	192
1091.000	198
1092.000	195
1093.000	204
1094.000	204
1095.000	208
1096.000	207
1097.000	205
1098.000	209
1099.000	205
1100.000	205
1101.000	210
1102.000	212
1103.000	203
1104.000	206
1105.000	198
1106.000	199
1107.000	197
1108.000	199
1109.000	197
1110.000	196
1111.000	191
1112.000	195
1113.000	188
1114.000	193
1115.000	193
1116.000	189
1117.000	188
1118.000	199
1119.000	190
1120.000	188
1121.000	185
1122.000	187
1123.000	190
1124.000	188
1125.000	187
1126.000	198
1127.000	192
1128.000	194
1129.000	195
1130.000	201
1131.000	198
1132.000	192
1133.000	188
1134.000	199
1135.000	199
1136.000	205
1137.000	197
1138.000	197
1139.000	198
1140.000	199
1141.000	192
1142.000	200
1143.000	195
1144.000	203
1145.000	209
1146.000	199
1147.000	199
1148.000	200
1149.000	203
1150.000	208
1151.000	200
1152.000	212
1153.000	217
1154.000	223
1155.000	229
1156.000	226
1157.000	225
1158.000	230
1159.000	241
1160.000	238
1161.000	240
1162.000	240
1163.000	236
1164.000	232
1165.000	245
1166.000	231
1167.000	229
1168.000	219
1169.000	232
1170.000	226
1171.000	213
1172.000	218
1173.000	209
1174.000	212
1175.000	203
1176.000	203
1177.000	201
1178.000	200
1179.000	201
1180.000	200
1181.000	193
1182.000	190
1183.000	200
1184.000	191
1185.000	199
1186.000	191
1187.000	193
1188.000	193
1189.000	200
1190.000	200
1191.000	199
1192.000	190
1193.000	191
1194.000	199
1195.000	194
1196.000	195
1197.000	188
1198.000	197
1199.000	196
1200.000	198
1201.000	201
1202.000	197
1203.000	194
1204.000	195
1205.000	194
1206.000	193
1207.000	193
1208.000	206
1209.000	194
1210.000	192
1211.000	191
1212.000	196
1213.000	204
1214.000	203
1215.000	203
1216.000	195
1217.000	199
1218.000	194
1219.000	202
1220.000	209
1221.000	201
1222.000	210
1223.000	214
1224.000	208
1225.000	197
1226.000	200
1227.000	206
1228.000	209
1229.000	204
1230.000	202
1231.000	197
1232.000	205
1233.000	210
1234.000	205
1235.000	209
1236.000	202
1237.000	215
1238.000	204
1239.000	205
1240.000	209
1241.000	204
1242.000	202
1243.000	206
1244.000	212
1245.000	206
1246.000	205
1247.000	208
1248.000	204
1249.000	205
1250.000	202
1251.000	208
1252.000	205
1253.000	208
1254.000	209
1255.000	208
1256.000	199
1257.000	211
1258.000	207
1259.000	210
1260.000	207
1261.000	208
1262.000	204
1263.000	199
1264.000	209
1265.000	204
1266.000	212
1267.000	207
1268.000	211
1269.000	196
1270.000	207
1271.000	207
1272.000	210
1273.000	204
1274.000	201
1275.000	211
1276.000	211
1277.000	206
1278.000	212
1279.000	204
1280.000	211
1281.000	207
1282.000	213
1283.000	203
1284.000	211
1285.000	201
1286.000	211
1287.000	217
1288.000	223
1289.000	227
1290.000	215
1291.000	220
1292.000	224
1293.000	226
1294.000	235
1295.000	237
1296.000	241
1297.000	235
1298.000	241
1299.000	234
1300.000	241
1301.000	247
1302.000	251
1303.000	249
1304.000	237
1305.000	251
1306.000	250
1307.000	247
1308.000	253
1309.000	241
1310.000	246
1311.000	248
1312.000	234
1313.000	239
1314.000	230
1315.000	232
1316.000	229
1317.000	225
1318.000	223
1319.000	215
1320.000	216
1321.000	220
1322.000	223
1323.000	212
1324.000	219
1325.000	217
1326.000	213
1327.000	208
1328.000	214
1329.000	212
1330.000	208
1331.000	206
1332.000	223
1333.000	214
1334.000	223
1335.000	213
1336.000	214
1337.000	216
1338.000	213
1339.000	213
1340.000	217
1341.000	216
1342.000	212
1343.000	212
1344.000	214
1345.000	217
1346.000	210
1347.000	222
1348.000	212
1349.000	221
1350.000	216
1351.000	217
1352.000	218
1353.000	224
1354.000	230
1355.000	225
1356.000	229
1357.000	235
1358.000	243
1359.000	248
1360.000	257
1361.000	279
1362.000	296
1363.000	311
1364.000	322
1365.000	354
1366.000	373
1367.000	414
1368.000	439
1369.000	472
1370.000	516
1371.000	563
1372.000	598
1373.000	631
1374.000	665
1375.000	673
1376.000	743
1377.000	747
1378.000	749
1379.000	769
1380.000	746
1381.000	776
1382.000	754
1383.000	737
1384.000	719
1385.000	677
1386.000	646
1387.000	602
1388.000	568
1389.000	516
1390.000	489
1391.000	445
1392.000	410
1393.000	381
1394.000	367
1395.000	333
1396.000	304
1397.000	287
1398.000	267
1399.000	266
1400.000	245
1401.000	234
1402.000	230
1403.000	222
1404.000	220
1405.000	219
1406.000	220
1407.000	209
1408.000	201
1409.000	208
1410.000	210
1411.000	207
1412.000	211
1413.000	215
1414.000	213
1415.000	211
1416.000	212
1417.000	203
1418.000	204
1419.000	215
1420.000	217
1421.000	213
1422.000	210
1423.000	206
1424.000	216
1425.000	209
1426.000	218
1427.000	212
1428.000	202
1429.000	214
1430.000	213
1431.000	205
1432.000	207
1433.000	212
1434.000	211
1435.000	218
1436.000	216
1437.000	210
1438.000	220
1439.000	211
1440.000	214
1441.000	214
1442.000	219
1443.000	213
1444.000	228
1445.000	221
1446.000	221
1447.000	228
1448.000	228
1449.000	223
1450.000	231
1451.000	234
1452.000	232
1453.000	242
1454.000	231
1455.000	235
1456.000	231
1457.000	232
1458.000	235
1459.000	239
1460.000	236
1461.000	231
1462.000	222
1463.000	234
1464.000	239
1465.000	232
1466.000	234
1467.000	223
1468.000	220
1469.000	224
1470.000	230
1471.000	225
1472.000	221
1473.000	222
1474.000	227
1475.000	218
1476.000	223
1477.000	221
1478.000	220
1479.000	224
1480.000	218
1481.000	219
1482.000	210
1483.000	220
1484.000	228
1485.000	217
1486.000	221
1487.000	220
1488.000	222
1489.000	215
1490.000	224
1491.000	212
1492.000	225
1493.000	221
1494.000	227
1495.000	219
1496.000	228
1497.000	222
1498.000	223
1499.000	229
1500.000	219
1501.000	222
1502.000	227
1503.000	229
1504.000	234
1505.000	232
1506.000	231
1507.000	222
1508.000	231
1509.000	226
1510.000	238
1511.000	228
1512.000	234
1513.000	242
1514.000	241
1515.000	238
1516.000	237
1517.000	248
1518.000	255
1519.000	253
1520.000	267
1521.000	268
1522.000	273
1523.000	281
1524.000	292
1525.000	300
1526.000	309
1527.000	320
1528.000	341
1529.000	330
1530.000	346
1531.000	354
1532.000	381
1533.000	377
1534.000	401
1535.000	404
1536.000	411
1537.000	411
1538.000	423
1539.000	419
1540.000	423
1541.000	428
1542.000	425
1543.000	437
1544.000	426
1545.000	412
1546.000	421
1547.000	400
1548.000	395
1549.000	381
1550.000	385
1551.000	362
1552.000	349
1553.000	350
1554.000	347
1555.000	341
1556.000	336
1557.000	338
1558.000	326
1559.000	325
1560.000	324
1561.000	331
1562.000	324
1563.000	340
1564.000	335
1565.000	338
1566.000	340
1567.000	360
1568.000	353
1569.000	362
1570.000	372
1571.000	383
1572.000	387
1573.000	400
1574.000	414
1575.000	414
1576.000	440
1577.000	441
1578.000	452
1579.000	469
1580.000	479
1581.000	491
1582.000	519
1583.000	519
1584.000	526
1585.000	552
1586.000	574
1587.000	590
1588.000	609
1589.000	613
1590.000	625
1591.000	652
1592.000	672
1593.000	677
1594.000	695
1595.000	716
1596.000	723
1597.000	727
1598.000	748
1599.000	754
1600.000	766
1601.000	768
1602.000	790
1603.000	781
1604.000	810
1605.000	796
1606.000	801
1607.000	805
1608.000	810
1609.000	808
1610.000	802
1611.000	794
1612.000	813
1613.000	795
1614.000	794
1615.000	777
1616.000	802
1617.000	780
1618.000	753
1619.000	739
1620.000	733
1621.000	722
1622.000	701
1623.000	695
1624.000	671
1625.000	662
1626.000	640
1627.000	626
1628.000	598
1629.000	588
1630.000	569
1631.000	552
1632.000	537
1633.000	517
1634.000	499
1635.000	495
1636.000	473
1637.000	459
1638.000	458
1639.000	439
1640.000	424
1641.000	406
1642.000	387
1643.000	379
1644.000	382
1645.000	369
1646.000	350
1647.000	351
1648.000	323
1649.000	318
1650.000	317
1651.000	311
1652.000	296
1653.000	287
1654.000	292
1655.000	286
1656.000	281
1657.000	271
1658.000	262
1659.000	263
1660.000	251
1661.000	249
1662.000	242
1663.000	248
1664.000	246
1665.000	237
1666.000	232
1667.000	226
1668.000	230
1669.000	233
1670.000	233
1671.000	222
1672.000	227
1673.000	231
1674.000	229
1675.000	233
1676.000	238
1677.000	243
1678.000	245
1679.000	251
1680.000	266
1681.000	273
1682.000	284
1683.000	295
1684.000	310
1685.000	328
1686.000	348
1687.000	359
1688.000	389
1689.000	419
1690.000	437
1691.000	456
1692.000	474
1693.000	501
1694.000	524
1695.000	546
1696.000	558
1697.000	575
1698.000	586
1699.000	614
1700.000	607
1701.000	626
1702.000	613
1703.000	616
1704.000	608
1705.000	601
1706.000	583
1707.000	559
1708.000	546
1709.000	524
1710.000	505
1711.000	481
1712.000	446
1713.000	428
1714.000	390
1715.000	369
1716.000	357
1717.000	322
1718.000	306
1719.000	280
1720.000	268
1721.000	258
1722.000	240
1723.000	227
1724.000	221
1725.000	218
1726.000	213
1727.000	201
1728.000	199
1729.000	198
1730.000	192
1731.000	191
1732.000	189
1733.000	189
1734.000	182
1735.000	176
1736.000	178
1737.000	183
1738.000	185
1739.000	175
1740.000	173
1741.000	181
1742.000	178
1743.000	189
1744.000	181
1745.000	175
1746.000	190
1747.000	181
1748.000	186
1749.000	186
1750.000	188
1751.000	184
1752.000	182
1753.000	183
1754.000	186
1755.000	195
1756.000	191
1757.000	196
1758.000	194
1759.000	198
1760.000	198
1761.000	191
1762.000	201
1763.000	201
1764.000	204
1765.000	203
1766.000	204
1767.000	200
1768.000	212
1769.000	221
1770.000	221
1771.000	213
1772.000	218
1773.000	228
1774.000	225
1775.000	219
1776.000	232
1777.000	230
1778.000	236
1779.000	239
1780.000	238
1781.000	231
1782.000	245
1783.000	241
1784.000	237
1785.000	256
1786.000	244
1787.000	251
1788.000	242
1789.000	269
1790.000	238
1791.000	260
1792.000	252
1793.000	250
1794.000	249
1795.000	252
1796.000	251
1797.000	249
1798.000	246
1799.000	246
1800.000	254
1801.000	239
1802.000	248
1803.000	247
1804.000	242
1805.000	237
1806.000	231
1807.000	226
1808.000	231
1809.000	234
1810.000	230
1811.000	227
1812.000	222
1813.000	221
1814.000	209
1815.000	210
1816.000	206
1817.000	206
1818.000	208
1819.000	197
1820.000	187
1821.000	204
1822.000	195
1823.000	193
1824.000	181
1825.000	186
1826.000	185
1827.000	180
1828.000	174
1829.000	171
1830.000	161
1831.000	163
1832.000	161
1833.000	161
1834.000	158
1835.000	153
1836.000	148
1837.000	152
1838.000	144
1839.000	142
1840.000	135
1841.000	135
1842.000	140
1843.000	134
1844.000	131
1845.000	136
1846.000	123
1847.000	127
1848.000	127
1849.000	129
1850.000	123
1851.000	118
1852.000	124
1853.000	116
1854.000	118
1855.000	113
1856.000	114
1857.000	111
1858.000	109
1859.000	116
1860.000	111
1861.000	104
1862.000	108
1863.000	104
1864.000	102
1865.000	101
1866.000	103
1867.000	104
1868.000	95
1869.000	103
1870.000	94
1871.000	96
1872.000	99
1873.000	96
1874.000	92
1875.000	98
1876.000	90
1877.000	97
1878.000	89
1879.000	97
1880.000	93
1881.000	100
1882.000	92
1883.000	93
1884.000	94
1885.000	94
1886.000	90
1887.000	94
1888.000	93
1889.000	94
1890.000	91
1891.000	94
1892.000	94
1893.000	101
1894.000	99
1895.000	103
1896.000	101
1897.000	103
1898.000	103
1899.000	105
1900.000	116
1901.000	119
1902.000	122
1903.000	122
1904.000	132
1905.000	126
1906.000	136
1907.000	141
1908.000	146
1909.000	146
1910.000	149
1911.000	139
1912.000	139
1913.000	138
1914.000	138
1915.000	139
1916.000	135
1917.000	131
1918.000	127
1919.000	137
1920.000	124
1921.000	117
1922.000	111
1923.000	108
1924.000	111
1925.000	102
1926.000	95
1927.000	96
1928.000	95
1929.000	90
1930.000	89
1931.000	89
1932.000	91
1933.000	87
1934.000	81
1935.000	86
1936.000	80
1937.000	76
1938.000	83
1939.000	83
1940.000	89
1941.000	80
1942.000	78
1943.000	88
1944.000	87
1945.000	84
1946.000	85
1947.000	81
1948.000	78
1949.000	78
1950.000	77
1951.000	81
1952.000	78
1953.000	79
1954.000	75
1955.000	72
1956.000	76
1957.000	70
1958.000	70
1959.000	71
1960.000	70
1961.000	75
1962.000	72
1963.000	69
1964.000	74
1965.000	64
1966.000	67
1967.000	69
1968.000	64
1969.000	67
1970.000	67
1971.000	65
1972.000	63
1973.000	66
1974.000	66
1975.000	68
1976.000	61
1977.000	61
1978.000	64
1979.000	67
1980.000	67
1981.000	68
1982.000	64
1983.000	65
1984.000	65
1985.000	63
1986.000	68
1987.000	66
1988.000	64
1989.000	60
1990.000	62
1991.000	57
1992.000	64
1993.000	63
1994.000	59
1995.000	64
1996.000	67
1997.000	61
1998.000	59
1999.000	62
2000.000	64
2001.000	61
2002.000	61
2003.000	64
2004.000	68
2005.000	62
2006.000	65
2007.000	64
2008.000	65
2009.000	60
2010.000	63
2011.000	59
2012.000	63
2013.000	60
2014.000	61
2015.000	62
2016.000	61
2017.000	66
2018.000	63
2019.000	58
2020.000	59
2021.000	61
2022.000	62
2023.000	59
2024.000	60
2025.000	61
2026.000	60
2027.000	63
2028.000	67
2029.000	59
2030.000	58
2031.000	58
2032.000	59
2033.000	57
2034.000	60
2035.000	60
2036.000	61
2037.000	61
2038.000	63
2039.000	60
2040.000	61
2041.000	63
2042.000	56
2043.000	59
2044.000	64
2045.000	57
2046.000	57
2047.000	61
2048.000	0
