Date:	22-Sep-20		Time:	10:49 PM		Version no:	0.00		Project name:	55		Sample name:	222		Section name:	section		Position	0.000000	mm	E0	0.000000	keV	E1	1.000000	keV/channel	sample surface	2.000000	cm	Tube anode:	Mo		Tube voltage:	30	kV	Tube current:	30	mA	gain	15		std. database			resultfile	result		matrix element	11		sample thickness	1.000000		air passage	0.560000	cm	comments	not in position		peaking_time	0.300000	m-sec	trigger_threshold	40.000000	V	mca_bin_width	2.000000	no:	number_mca_channels	2048.000000	no:	gap_time	2048.000000	m-sec	trigger_peaking_time	2048.000000	m-sec	GAINDAC	400		HIGHGAIN	400		TAURC	400		RCTAU	400		RCTAUFRAC	400		livetime	12.778311	seconds	runtime	15.000098	seconds	input_count_rate	8453.386602	cps	output_count_rate	7201.286285	cps	triggers	126178	seconds	events_in_run	98622	seconds	channel	content		1.000	0
2.000	0
3.000	0
4.000	0
5.000	0
6.000	0
7.000	0
8.000	0
9.000	0
10.000	0
11.000	0
12.000	0
13.000	0
14.000	0
15.000	0
16.000	0
17.000	0
18.000	0
19.000	0
20.000	0
21.000	0
22.000	0
23.000	0
24.000	0
25.000	0
26.000	0
27.000	0
28.000	0
29.000	0
30.000	0
31.000	0
32.000	0
33.000	0
34.000	0
35.000	0
36.000	0
37.000	0
38.000	0
39.000	0
40.000	0
41.000	0
42.000	0
43.000	0
44.000	0
45.000	0
46.000	0
47.000	0
48.000	0
49.000	1
50.000	1
51.000	2
52.000	2
53.000	3
54.000	3
55.000	5
56.000	6
57.000	8
58.000	12
59.000	18
60.000	21
61.000	29
62.000	27
63.000	29
64.000	30
65.000	28
66.000	30
67.000	23
68.000	27
69.000	23
70.000	27
71.000	25
72.000	26
73.000	26
74.000	26
75.000	24
76.000	24
77.000	26
78.000	24
79.000	27
80.000	25
81.000	27
82.000	23
83.000	23
84.000	25
85.000	26
86.000	25
87.000	25
88.000	24
89.000	23
90.000	25
91.000	22
92.000	21
93.000	21
94.000	23
95.000	21
96.000	22
97.000	19
98.000	20
99.000	20
100.000	18
101.000	20
102.000	20
103.000	22
104.000	18
105.000	21
106.000	20
107.000	19
108.000	20
109.000	19
110.000	19
111.000	21
112.000	18
113.000	18
114.000	17
115.000	17
116.000	19
117.000	21
118.000	18
119.000	16
120.000	19
121.000	17
122.000	19
123.000	19
124.000	16
125.000	18
126.000	16
127.000	18
128.000	15
129.000	15
130.000	16
131.000	15
132.000	14
133.000	17
134.000	14
135.000	16
136.000	14
137.000	15
138.000	20
139.000	16
140.000	18
141.000	18
142.000	21
143.000	24
144.000	27
145.000	28
146.000	29
147.000	29
148.000	28
149.000	27
150.000	24
151.000	25
152.000	22
153.000	20
154.000	20
155.000	18
156.000	19
157.000	18
158.000	17
159.000	17
160.000	15
161.000	16
162.000	17
163.000	19
164.000	23
165.000	34
166.000	45
167.000	49
168.000	64
169.000	70
170.000	79
171.000	75
172.000	73
173.000	63
174.000	52
175.000	49
176.000	41
177.000	33
178.000	28
179.000	29
180.000	30
181.000	32
182.000	33
183.000	41
184.000	50
185.000	65
186.000	92
187.000	104
188.000	135
189.000	150
190.000	166
191.000	170
192.000	172
193.000	157
194.000	129
195.000	102
196.000	82
197.000	57
198.000	44
199.000	31
200.000	23
201.000	20
202.000	17
203.000	15
204.000	15
205.000	12
206.000	12
207.000	13
208.000	14
209.000	14
210.000	13
211.000	12
212.000	16
213.000	17
214.000	16
215.000	17
216.000	19
217.000	20
218.000	21
219.000	31
220.000	30
221.000	34
222.000	36
223.000	37
224.000	32
225.000	35
226.000	36
227.000	30
228.000	26
229.000	20
230.000	19
231.000	15
232.000	15
233.000	13
234.000	14
235.000	11
236.000	12
237.000	13
238.000	11
239.000	12
240.000	11
241.000	11
242.000	12
243.000	12
244.000	12
245.000	16
246.000	17
247.000	20
248.000	25
249.000	32
250.000	46
251.000	63
252.000	79
253.000	98
254.000	120
255.000	138
256.000	155
257.000	160
258.000	151
259.000	140
260.000	126
261.000	102
262.000	79
263.000	63
264.000	46
265.000	36
266.000	28
267.000	24
268.000	20
269.000	23
270.000	22
271.000	25
272.000	24
273.000	25
274.000	27
275.000	29
276.000	29
277.000	26
278.000	25
279.000	27
280.000	24
281.000	23
282.000	28
283.000	30
284.000	33
285.000	37
286.000	46
287.000	51
288.000	55
289.000	59
290.000	59
291.000	59
292.000	56
293.000	45
294.000	41
295.000	39
296.000	30
297.000	24
298.000	25
299.000	20
300.000	16
301.000	17
302.000	17
303.000	18
304.000	17
305.000	17
306.000	16
307.000	22
308.000	19
309.000	22
310.000	28
311.000	31
312.000	32
313.000	43
314.000	54
315.000	76
316.000	103
317.000	138
318.000	184
319.000	239
320.000	309
321.000	370
322.000	428
323.000	472
324.000	494
325.000	495
326.000	467
327.000	433
328.000	377
329.000	312
330.000	246
331.000	184
332.000	140
333.000	96
334.000	67
335.000	48
336.000	42
337.000	32
338.000	34
339.000	35
340.000	38
341.000	43
342.000	52
343.000	64
344.000	91
345.000	122
346.000	167
347.000	248
348.000	349
349.000	563
350.000	854
351.000	1289
352.000	2000
353.000	2868
354.000	4052
355.000	5570
356.000	7305
357.000	9066
358.000	10868
359.000	12329
360.000	13552
361.000	14013
362.000	14000
363.000	13242
364.000	11986
365.000	10340
366.000	8490
367.000	6719
368.000	5005
369.000	3586
370.000	2484
371.000	1651
372.000	1039
373.000	653
374.000	395
375.000	251
376.000	169
377.000	131
378.000	122
379.000	126
380.000	152
381.000	199
382.000	265
383.000	352
384.000	493
385.000	649
386.000	845
387.000	1074
388.000	1310
389.000	1589
390.000	1810
391.000	1974
392.000	2097
393.000	2123
394.000	2070
395.000	1942
396.000	1705
397.000	1440
398.000	1163
399.000	940
400.000	712
401.000	501
402.000	355
403.000	233
404.000	150
405.000	97
406.000	58
407.000	41
408.000	25
409.000	18
410.000	13
411.000	12
412.000	8
413.000	8
414.000	8
415.000	8
416.000	8
417.000	8
418.000	7
419.000	8
420.000	8
421.000	10
422.000	8
423.000	8
424.000	10
425.000	9
426.000	11
427.000	12
428.000	19
429.000	24
430.000	30
431.000	41
432.000	52
433.000	70
434.000	87
435.000	110
436.000	135
437.000	158
438.000	176
439.000	189
440.000	199
441.000	211
442.000	210
443.000	200
444.000	174
445.000	161
446.000	135
447.000	109
448.000	98
449.000	77
450.000	64
451.000	55
452.000	46
453.000	44
454.000	41
455.000	37
456.000	33
457.000	32
458.000	30
459.000	30
460.000	26
461.000	22
462.000	24
463.000	21
464.000	17
465.000	18
466.000	17
467.000	19
468.000	20
469.000	22
470.000	25
471.000	21
472.000	30
473.000	32
474.000	30
475.000	35
476.000	37
477.000	40
478.000	45
479.000	46
480.000	49
481.000	56
482.000	56
483.000	56
484.000	52
485.000	53
486.000	47
487.000	44
488.000	39
489.000	35
490.000	28
491.000	27
492.000	22
493.000	23
494.000	19
495.000	18
496.000	18
497.000	16
498.000	18
499.000	18
500.000	17
501.000	19
502.000	19
503.000	19
504.000	19
505.000	23
506.000	22
507.000	20
508.000	20
509.000	23
510.000	22
511.000	23
512.000	24
513.000	24
514.000	26
515.000	25
516.000	25
517.000	27
518.000	32
519.000	31
520.000	33
521.000	33
522.000	36
523.000	38
524.000	40
525.000	47
526.000	49
527.000	48
528.000	47
529.000	49
530.000	48
531.000	46
532.000	47
533.000	44
534.000	45
535.000	34
536.000	36
537.000	33
538.000	29
539.000	26
540.000	26
541.000	27
542.000	23
543.000	23
544.000	24
545.000	28
546.000	23
547.000	23
548.000	25
549.000	21
550.000	23
551.000	27
552.000	21
553.000	25
554.000	25
555.000	25
556.000	26
557.000	26
558.000	29
559.000	28
560.000	30
561.000	32
562.000	35
563.000	39
564.000	43
565.000	51
566.000	60
567.000	61
568.000	75
569.000	93
570.000	100
571.000	121
572.000	135
573.000	140
574.000	160
575.000	160
576.000	171
577.000	167
578.000	158
579.000	149
580.000	141
581.000	130
582.000	112
583.000	100
584.000	86
585.000	70
586.000	61
587.000	53
588.000	44
589.000	42
590.000	38
591.000	35
592.000	34
593.000	38
594.000	36
595.000	33
596.000	36
597.000	31
598.000	36
599.000	40
600.000	39
601.000	40
602.000	42
603.000	48
604.000	55
605.000	58
606.000	77
607.000	91
608.000	129
609.000	167
610.000	249
611.000	344
612.000	480
613.000	679
614.000	922
615.000	1260
616.000	1679
617.000	2166
618.000	2721
619.000	3301
620.000	3949
621.000	4573
622.000	5110
623.000	5551
624.000	5814
625.000	6019
626.000	5964
627.000	5702
628.000	5373
629.000	4901
630.000	4273
631.000	3690
632.000	3061
633.000	2511
634.000	1953
635.000	1483
636.000	1132
637.000	841
638.000	597
639.000	429
640.000	308
641.000	216
642.000	160
643.000	125
644.000	96
645.000	82
646.000	74
647.000	66
648.000	60
649.000	62
650.000	62
651.000	57
652.000	61
653.000	54
654.000	61
655.000	61
656.000	64
657.000	59
658.000	59
659.000	65
660.000	62
661.000	68
662.000	64
663.000	63
664.000	67
665.000	69
666.000	70
667.000	76
668.000	78
669.000	79
670.000	90
671.000	94
672.000	102
673.000	118
674.000	137
675.000	152
676.000	184
677.000	225
678.000	263
679.000	322
680.000	392
681.000	460
682.000	557
683.000	640
684.000	733
685.000	822
686.000	908
687.000	960
688.000	987
689.000	1008
690.000	1002
691.000	970
692.000	903
693.000	840
694.000	744
695.000	652
696.000	564
697.000	467
698.000	383
699.000	324
700.000	244
701.000	205
702.000	162
703.000	139
704.000	108
705.000	88
706.000	85
707.000	69
708.000	65
709.000	64
710.000	67
711.000	61
712.000	62
713.000	60
714.000	62
715.000	62
716.000	65
717.000	67
718.000	72
719.000	73
720.000	78
721.000	83
722.000	80
723.000	85
724.000	88
725.000	89
726.000	95
727.000	96
728.000	94
729.000	98
730.000	98
731.000	94
732.000	97
733.000	91
734.000	89
735.000	82
736.000	85
737.000	80
738.000	81
739.000	76
740.000	71
741.000	74
742.000	75
743.000	69
744.000	72
745.000	67
746.000	71
747.000	69
748.000	72
749.000	66
750.000	67
751.000	72
752.000	70
753.000	70
754.000	73
755.000	74
756.000	71
757.000	67
758.000	71
759.000	73
760.000	71
761.000	68
762.000	73
763.000	75
764.000	74
765.000	74
766.000	72
767.000	73
768.000	73
769.000	76
770.000	82
771.000	81
772.000	81
773.000	85
774.000	88
775.000	85
776.000	99
777.000	99
778.000	100
779.000	108
780.000	107
781.000	110
782.000	117
783.000	119
784.000	130
785.000	131
786.000	136
787.000	136
788.000	140
789.000	139
790.000	141
791.000	142
792.000	149
793.000	148
794.000	147
795.000	145
796.000	149
797.000	143
798.000	149
799.000	152
800.000	143
801.000	149
802.000	153
803.000	159
804.000	155
805.000	166
806.000	160
807.000	171
808.000	180
809.000	185
810.000	192
811.000	205
812.000	205
813.000	235
814.000	244
815.000	259
816.000	266
817.000	279
818.000	286
819.000	288
820.000	296
821.000	283
822.000	273
823.000	263
824.000	247
825.000	244
826.000	226
827.000	205
828.000	182
829.000	175
830.000	167
831.000	160
832.000	139
833.000	146
834.000	141
835.000	131
836.000	134
837.000	137
838.000	133
839.000	134
840.000	138
841.000	136
842.000	135
843.000	134
844.000	132
845.000	134
846.000	134
847.000	133
848.000	136
849.000	126
850.000	134
851.000	126
852.000	124
853.000	125
854.000	123
855.000	124
856.000	123
857.000	123
858.000	121
859.000	122
860.000	113
861.000	115
862.000	120
863.000	115
864.000	116
865.000	118
866.000	123
867.000	125
868.000	124
869.000	118
870.000	122
871.000	120
872.000	120
873.000	121
874.000	123
875.000	122
876.000	122
877.000	118
878.000	121
879.000	124
880.000	122
881.000	118
882.000	124
883.000	124
884.000	124
885.000	126
886.000	125
887.000	122
888.000	121
889.000	126
890.000	130
891.000	133
892.000	129
893.000	122
894.000	132
895.000	136
896.000	139
897.000	144
898.000	142
899.000	144
900.000	155
901.000	151
902.000	152
903.000	151
904.000	158
905.000	159
906.000	167
907.000	165
908.000	161
909.000	167
910.000	166
911.000	175
912.000	174
913.000	171
914.000	173
915.000	172
916.000	175
917.000	177
918.000	175
919.000	179
920.000	180
921.000	181
922.000	178
923.000	183
924.000	186
925.000	195
926.000	195
927.000	190
928.000	206
929.000	195
930.000	203
931.000	200
932.000	208
933.000	218
934.000	223
935.000	228
936.000	240
937.000	240
938.000	245
939.000	245
940.000	259
941.000	260
942.000	268
943.000	263
944.000	266
945.000	269
946.000	267
947.000	253
948.000	245
949.000	237
950.000	235
951.000	227
952.000	227
953.000	216
954.000	208
955.000	201
956.000	189
957.000	191
958.000	181
959.000	186
960.000	181
961.000	188
962.000	181
963.000	180
964.000	183
965.000	183
966.000	189
967.000	182
968.000	191
969.000	189
970.000	191
971.000	192
972.000	191
973.000	179
974.000	184
975.000	191
976.000	182
977.000	179
978.000	177
979.000	173
980.000	170
981.000	166
982.000	161
983.000	161
984.000	157
985.000	159
986.000	156
987.000	149
988.000	154
989.000	155
990.000	157
991.000	144
992.000	152
993.000	151
994.000	139
995.000	138
996.000	142
997.000	143
998.000	144
999.000	144
1000.000	135
1001.000	139
1002.000	138
1003.000	138
1004.000	140
1005.000	137
1006.000	140
1007.000	135
1008.000	137
1009.000	143
1010.000	138
1011.000	145
1012.000	136
1013.000	147
1014.000	138
1015.000	136
1016.000	143
1017.000	141
1018.000	136
1019.000	138
1020.000	140
1021.000	144
1022.000	142
1023.000	142
1024.000	146
1025.000	142
1026.000	149
1027.000	148
1028.000	146
1029.000	141
1030.000	148
1031.000	145
1032.000	149
1033.000	148
1034.000	151
1035.000	142
1036.000	146
1037.000	155
1038.000	151
1039.000	153
1040.000	145
1041.000	149
1042.000	151
1043.000	151
1044.000	146
1045.000	153
1046.000	153
1047.000	155
1048.000	157
1049.000	154
1050.000	163
1051.000	161
1052.000	155
1053.000	157
1054.000	169
1055.000	161
1056.000	165
1057.000	165
1058.000	163
1059.000	163
1060.000	158
1061.000	165
1062.000	166
1063.000	162
1064.000	173
1065.000	166
1066.000	162
1067.000	165
1068.000	168
1069.000	169
1070.000	173
1071.000	157
1072.000	162
1073.000	159
1074.000	173
1075.000	172
1076.000	162
1077.000	158
1078.000	163
1079.000	165
1080.000	165
1081.000	164
1082.000	163
1083.000	161
1084.000	160
1085.000	168
1086.000	169
1087.000	165
1088.000	168
1089.000	169
1090.000	168
1091.000	169
1092.000	175
1093.000	173
1094.000	171
1095.000	178
1096.000	182
1097.000	177
1098.000	185
1099.000	172
1100.000	182
1101.000	181
1102.000	180
1103.000	182
1104.000	190
1105.000	179
1106.000	175
1107.000	174
1108.000	176
1109.000	171
1110.000	169
1111.000	167
1112.000	168
1113.000	163
1114.000	165
1115.000	158
1116.000	169
1117.000	167
1118.000	157
1119.000	171
1120.000	166
1121.000	163
1122.000	168
1123.000	165
1124.000	162
1125.000	162
1126.000	169
1127.000	169
1128.000	167
1129.000	170
1130.000	173
1131.000	166
1132.000	167
1133.000	171
1134.000	166
1135.000	169
1136.000	177
1137.000	170
1138.000	163
1139.000	163
1140.000	166
1141.000	171
1142.000	171
1143.000	176
1144.000	173
1145.000	168
1146.000	169
1147.000	176
1148.000	171
1149.000	180
1150.000	179
1151.000	172
1152.000	180
1153.000	175
1154.000	186
1155.000	184
1156.000	192
1157.000	193
1158.000	185
1159.000	196
1160.000	194
1161.000	192
1162.000	198
1163.000	201
1164.000	191
1165.000	190
1166.000	196
1167.000	190
1168.000	187
1169.000	193
1170.000	189
1171.000	190
1172.000	180
1173.000	182
1174.000	175
1175.000	174
1176.000	162
1177.000	170
1178.000	166
1179.000	167
1180.000	173
1181.000	165
1182.000	173
1183.000	168
1184.000	166
1185.000	164
1186.000	172
1187.000	175
1188.000	167
1189.000	157
1190.000	162
1191.000	161
1192.000	166
1193.000	168
1194.000	174
1195.000	165
1196.000	164
1197.000	169
1198.000	160
1199.000	169
1200.000	168
1201.000	166
1202.000	168
1203.000	171
1204.000	169
1205.000	170
1206.000	170
1207.000	172
1208.000	170
1209.000	173
1210.000	171
1211.000	169
1212.000	173
1213.000	175
1214.000	177
1215.000	167
1216.000	169
1217.000	165
1218.000	167
1219.000	176
1220.000	176
1221.000	175
1222.000	179
1223.000	182
1224.000	179
1225.000	174
1226.000	166
1227.000	175
1228.000	179
1229.000	181
1230.000	181
1231.000	179
1232.000	179
1233.000	187
1234.000	182
1235.000	183
1236.000	176
1237.000	175
1238.000	178
1239.000	175
1240.000	178
1241.000	176
1242.000	180
1243.000	184
1244.000	182
1245.000	176
1246.000	177
1247.000	178
1248.000	179
1249.000	179
1250.000	181
1251.000	172
1252.000	189
1253.000	181
1254.000	182
1255.000	179
1256.000	180
1257.000	174
1258.000	178
1259.000	177
1260.000	177
1261.000	182
1262.000	175
1263.000	179
1264.000	178
1265.000	180
1266.000	180
1267.000	176
1268.000	181
1269.000	173
1270.000	179
1271.000	174
1272.000	175
1273.000	172
1274.000	177
1275.000	183
1276.000	173
1277.000	181
1278.000	174
1279.000	180
1280.000	184
1281.000	178
1282.000	175
1283.000	186
1284.000	186
1285.000	191
1286.000	188
1287.000	188
1288.000	183
1289.000	186
1290.000	180
1291.000	194
1292.000	183
1293.000	188
1294.000	188
1295.000	200
1296.000	202
1297.000	208
1298.000	217
1299.000	209
1300.000	207
1301.000	212
1302.000	209
1303.000	215
1304.000	227
1305.000	213
1306.000	215
1307.000	209
1308.000	208
1309.000	208
1310.000	210
1311.000	206
1312.000	204
1313.000	204
1314.000	198
1315.000	197
1316.000	202
1317.000	186
1318.000	200
1319.000	193
1320.000	183
1321.000	190
1322.000	181
1323.000	190
1324.000	181
1325.000	186
1326.000	182
1327.000	177
1328.000	184
1329.000	186
1330.000	187
1331.000	187
1332.000	178
1333.000	182
1334.000	187
1335.000	185
1336.000	176
1337.000	175
1338.000	179
1339.000	184
1340.000	186
1341.000	181
1342.000	186
1343.000	181
1344.000	178
1345.000	192
1346.000	185
1347.000	185
1348.000	191
1349.000	184
1350.000	185
1351.000	195
1352.000	184
1353.000	194
1354.000	194
1355.000	191
1356.000	211
1357.000	204
1358.000	221
1359.000	230
1360.000	240
1361.000	255
1362.000	274
1363.000	302
1364.000	320
1365.000	348
1366.000	373
1367.000	416
1368.000	455
1369.000	491
1370.000	546
1371.000	593
1372.000	635
1373.000	674
1374.000	710
1375.000	747
1376.000	770
1377.000	821
1378.000	807
1379.000	825
1380.000	833
1381.000	831
1382.000	812
1383.000	781
1384.000	761
1385.000	723
1386.000	674
1387.000	649
1388.000	591
1389.000	552
1390.000	516
1391.000	456
1392.000	426
1393.000	390
1394.000	359
1395.000	319
1396.000	295
1397.000	277
1398.000	252
1399.000	229
1400.000	222
1401.000	211
1402.000	201
1403.000	203
1404.000	192
1405.000	186
1406.000	178
1407.000	181
1408.000	183
1409.000	183
1410.000	184
1411.000	187
1412.000	180
1413.000	174
1414.000	181
1415.000	179
1416.000	183
1417.000	173
1418.000	179
1419.000	182
1420.000	179
1421.000	177
1422.000	171
1423.000	174
1424.000	180
1425.000	183
1426.000	178
1427.000	182
1428.000	187
1429.000	178
1430.000	184
1431.000	183
1432.000	182
1433.000	185
1434.000	192
1435.000	185
1436.000	180
1437.000	185
1438.000	179
1439.000	191
1440.000	179
1441.000	182
1442.000	189
1443.000	185
1444.000	188
1445.000	189
1446.000	187
1447.000	200
1448.000	189
1449.000	195
1450.000	190
1451.000	199
1452.000	190
1453.000	198
1454.000	202
1455.000	201
1456.000	201
1457.000	206
1458.000	200
1459.000	193
1460.000	201
1461.000	203
1462.000	201
1463.000	199
1464.000	201
1465.000	194
1466.000	193
1467.000	194
1468.000	198
1469.000	188
1470.000	191
1471.000	198
1472.000	191
1473.000	187
1474.000	190
1475.000	189
1476.000	187
1477.000	192
1478.000	187
1479.000	195
1480.000	189
1481.000	183
1482.000	184
1483.000	187
1484.000	191
1485.000	187
1486.000	194
1487.000	190
1488.000	187
1489.000	182
1490.000	192
1491.000	194
1492.000	188
1493.000	191
1494.000	196
1495.000	199
1496.000	189
1497.000	187
1498.000	194
1499.000	194
1500.000	193
1501.000	183
1502.000	188
1503.000	186
1504.000	195
1505.000	184
1506.000	188
1507.000	194
1508.000	195
1509.000	190
1510.000	194
1511.000	195
1512.000	191
1513.000	204
1514.000	196
1515.000	204
1516.000	200
1517.000	202
1518.000	207
1519.000	209
1520.000	206
1521.000	208
1522.000	218
1523.000	218
1524.000	215
1525.000	220
1526.000	221
1527.000	223
1528.000	231
1529.000	249
1530.000	258
1531.000	252
1532.000	272
1533.000	271
1534.000	281
1535.000	296
1536.000	298
1537.000	310
1538.000	317
1539.000	318
1540.000	330
1541.000	325
1542.000	332
1543.000	341
1544.000	337
1545.000	329
1546.000	353
1547.000	339
1548.000	345
1549.000	327
1550.000	319
1551.000	308
1552.000	315
1553.000	302
1554.000	302
1555.000	302
1556.000	294
1557.000	293
1558.000	290
1559.000	275
1560.000	278
1561.000	283
1562.000	281
1563.000	288
1564.000	284
1565.000	295
1566.000	294
1567.000	293
1568.000	308
1569.000	305
1570.000	315
1571.000	323
1572.000	328
1573.000	335
1574.000	348
1575.000	356
1576.000	362
1577.000	374
1578.000	379
1579.000	382
1580.000	398
1581.000	410
1582.000	421
1583.000	428
1584.000	441
1585.000	444
1586.000	472
1587.000	469
1588.000	486
1589.000	503
1590.000	507
1591.000	519
1592.000	545
1593.000	549
1594.000	563
1595.000	566
1596.000	579
1597.000	603
1598.000	599
1599.000	621
1600.000	632
1601.000	643
1602.000	634
1603.000	652
1604.000	645
1605.000	653
1606.000	657
1607.000	677
1608.000	652
1609.000	664
1610.000	653
1611.000	651
1612.000	652
1613.000	655
1614.000	651
1615.000	641
1616.000	643
1617.000	628
1618.000	615
1619.000	605
1620.000	587
1621.000	587
1622.000	576
1623.000	564
1624.000	553
1625.000	547
1626.000	520
1627.000	531
1628.000	510
1629.000	489
1630.000	474
1631.000	471
1632.000	449
1633.000	438
1634.000	429
1635.000	406
1636.000	405
1637.000	395
1638.000	379
1639.000	368
1640.000	367
1641.000	348
1642.000	335
1643.000	334
1644.000	319
1645.000	312
1646.000	307
1647.000	290
1648.000	290
1649.000	277
1650.000	266
1651.000	263
1652.000	257
1653.000	254
1654.000	253
1655.000	242
1656.000	231
1657.000	228
1658.000	238
1659.000	218
1660.000	223
1661.000	223
1662.000	216
1663.000	209
1664.000	208
1665.000	208
1666.000	200
1667.000	205
1668.000	200
1669.000	200
1670.000	197
1671.000	197
1672.000	194
1673.000	202
1674.000	197
1675.000	197
1676.000	208
1677.000	205
1678.000	217
1679.000	223
1680.000	224
1681.000	234
1682.000	257
1683.000	274
1684.000	275
1685.000	295
1686.000	308
1687.000	335
1688.000	357
1689.000	367
1690.000	394
1691.000	419
1692.000	440
1693.000	459
1694.000	481
1695.000	493
1696.000	530
1697.000	527
1698.000	542
1699.000	566
1700.000	561
1701.000	562
1702.000	567
1703.000	570
1704.000	568
1705.000	561
1706.000	527
1707.000	512
1708.000	495
1709.000	471
1710.000	453
1711.000	431
1712.000	404
1713.000	370
1714.000	346
1715.000	325
1716.000	295
1717.000	279
1718.000	264
1719.000	241
1720.000	235
1721.000	206
1722.000	209
1723.000	191
1724.000	190
1725.000	178
1726.000	176
1727.000	168
1728.000	169
1729.000	159
1730.000	161
1731.000	156
1732.000	151
1733.000	153
1734.000	153
1735.000	151
1736.000	155
1737.000	155
1738.000	154
1739.000	153
1740.000	151
1741.000	157
1742.000	154
1743.000	152
1744.000	151
1745.000	154
1746.000	153
1747.000	149
1748.000	148
1749.000	152
1750.000	157
1751.000	157
1752.000	150
1753.000	156
1754.000	152
1755.000	152
1756.000	152
1757.000	164
1758.000	163
1759.000	169
1760.000	166
1761.000	173
1762.000	164
1763.000	167
1764.000	166
1765.000	170
1766.000	170
1767.000	168
1768.000	178
1769.000	181
1770.000	180
1771.000	183
1772.000	187
1773.000	191
1774.000	188
1775.000	182
1776.000	198
1777.000	194
1778.000	197
1779.000	199
1780.000	194
1781.000	199
1782.000	200
1783.000	203
1784.000	205
1785.000	213
1786.000	200
1787.000	209
1788.000	208
1789.000	213
1790.000	208
1791.000	207
1792.000	209
1793.000	212
1794.000	211
1795.000	217
1796.000	207
1797.000	207
1798.000	214
1799.000	213
1800.000	203
1801.000	207
1802.000	209
1803.000	213
1804.000	203
1805.000	201
1806.000	200
1807.000	196
1808.000	196
1809.000	198
1810.000	191
1811.000	196
1812.000	192
1813.000	184
1814.000	184
1815.000	178
1816.000	179
1817.000	176
1818.000	165
1819.000	174
1820.000	172
1821.000	163
1822.000	164
1823.000	165
1824.000	159
1825.000	155
1826.000	153
1827.000	151
1828.000	156
1829.000	155
1830.000	144
1831.000	137
1832.000	138
1833.000	141
1834.000	127
1835.000	141
1836.000	127
1837.000	126
1838.000	125
1839.000	127
1840.000	120
1841.000	126
1842.000	118
1843.000	121
1844.000	114
1845.000	110
1846.000	109
1847.000	109
1848.000	106
1849.000	109
1850.000	101
1851.000	110
1852.000	107
1853.000	103
1854.000	107
1855.000	99
1856.000	98
1857.000	97
1858.000	96
1859.000	93
1860.000	94
1861.000	97
1862.000	91
1863.000	90
1864.000	95
1865.000	90
1866.000	84
1867.000	88
1868.000	89
1869.000	88
1870.000	79
1871.000	84
1872.000	85
1873.000	86
1874.000	80
1875.000	85
1876.000	83
1877.000	82
1878.000	82
1879.000	77
1880.000	82
1881.000	84
1882.000	83
1883.000	81
1884.000	77
1885.000	81
1886.000	80
1887.000	81
1888.000	79
1889.000	83
1890.000	79
1891.000	80
1892.000	83
1893.000	83
1894.000	87
1895.000	84
1896.000	84
1897.000	93
1898.000	99
1899.000	98
1900.000	106
1901.000	109
1902.000	109
1903.000	111
1904.000	116
1905.000	109
1906.000	125
1907.000	122
1908.000	122
1909.000	127
1910.000	130
1911.000	128
1912.000	132
1913.000	127
1914.000	124
1915.000	124
1916.000	124
1917.000	119
1918.000	119
1919.000	111
1920.000	111
1921.000	102
1922.000	108
1923.000	97
1924.000	97
1925.000	92
1926.000	86
1927.000	84
1928.000	83
1929.000	79
1930.000	73
1931.000	75
1932.000	73
1933.000	73
1934.000	78
1935.000	69
1936.000	76
1937.000	71
1938.000	67
1939.000	75
1940.000	76
1941.000	76
1942.000	74
1943.000	77
1944.000	70
1945.000	75
1946.000	67
1947.000	75
1948.000	71
1949.000	69
1950.000	69
1951.000	68
1952.000	64
1953.000	70
1954.000	67
1955.000	72
1956.000	66
1957.000	62
1958.000	63
1959.000	62
1960.000	62
1961.000	60
1962.000	59
1963.000	60
1964.000	57
1965.000	56
1966.000	56
1967.000	56
1968.000	56
1969.000	60
1970.000	55
1971.000	58
1972.000	57
1973.000	56
1974.000	56
1975.000	54
1976.000	54
1977.000	56
1978.000	54
1979.000	53
1980.000	53
1981.000	54
1982.000	54
1983.000	55
1984.000	56
1985.000	55
1986.000	56
1987.000	53
1988.000	53
1989.000	54
1990.000	54
1991.000	53
1992.000	54
1993.000	54
1994.000	53
1995.000	57
1996.000	53
1997.000	52
1998.000	58
1999.000	52
2000.000	54
2001.000	52
2002.000	56
2003.000	53
2004.000	50
2005.000	56
2006.000	55
2007.000	53
2008.000	54
2009.000	57
2010.000	51
2011.000	56
2012.000	51
2013.000	56
2014.000	53
2015.000	51
2016.000	50
2017.000	53
2018.000	52
2019.000	52
2020.000	51
2021.000	52
2022.000	55
2023.000	49
2024.000	50
2025.000	52
2026.000	48
2027.000	48
2028.000	53
2029.000	50
2030.000	50
2031.000	51
2032.000	49
2033.000	53
2034.000	52
2035.000	52
2036.000	51
2037.000	49
2038.000	52
2039.000	50
2040.000	51
2041.000	47
2042.000	55
2043.000	47
2044.000	50
2045.000	49
2046.000	48
2047.000	50
2048.000	0
