Date:	23-Sep-20		Time:	11:32 PM		Version no:	0.00		Project name:	55		Sample name:	222		Section name:	section		Position	0.000000	mm	E0	0.000000	keV	E1	1.000000	keV/channel	sample surface	2.000000	cm	Tube anode:	Mo		Tube voltage:	30	kV	Tube current:	30	mA	gain	15		std. database			resultfile	result		matrix element	11		sample thickness	1.000000		air passage	0.560000	cm	comments	not in position		peaking_time	0.300000	m-sec	trigger_threshold	40.000000	V	mca_bin_width	2.000000	no:	number_mca_channels	2048.000000	no:	gap_time	2048.000000	m-sec	trigger_peaking_time	2048.000000	m-sec	GAINDAC	400		HIGHGAIN	400		TAURC	400		RCTAU	400		RCTAUFRAC	400		livetime	13.334824	seconds	runtime	15.000351	seconds	input_count_rate	47769.585089	cps	output_count_rate	42465.604889	cps	triggers	704307	seconds	events_in_run	618783	seconds	channel	content		1.000	0
2.000	0
3.000	0
4.000	0
5.000	0
6.000	0
7.000	0
8.000	0
9.000	0
10.000	0
11.000	0
12.000	0
13.000	0
14.000	0
15.000	0
16.000	0
17.000	0
18.000	0
19.000	0
20.000	0
21.000	0
22.000	0
23.000	0
24.000	0
25.000	0
26.000	0
27.000	0
28.000	0
29.000	0
30.000	0
31.000	0
32.000	1
33.000	1
34.000	0
35.000	1
36.000	0
37.000	0
38.000	0
39.000	0
40.000	0
41.000	0
42.000	1
43.000	0
44.000	0
45.000	1
46.000	1
47.000	0
48.000	1
49.000	0
50.000	1
51.000	2
52.000	2
53.000	3
54.000	4
55.000	6
56.000	8
57.000	11
58.000	13
59.000	18
60.000	23
61.000	29
62.000	32
63.000	29
64.000	31
65.000	26
66.000	31
67.000	26
68.000	26
69.000	27
70.000	26
71.000	26
72.000	24
73.000	29
74.000	27
75.000	23
76.000	25
77.000	23
78.000	24
79.000	26
80.000	25
81.000	26
82.000	25
83.000	24
84.000	25
85.000	25
86.000	28
87.000	25
88.000	23
89.000	25
90.000	21
91.000	23
92.000	23
93.000	21
94.000	23
95.000	24
96.000	23
97.000	24
98.000	19
99.000	23
100.000	21
101.000	20
102.000	21
103.000	22
104.000	20
105.000	20
106.000	21
107.000	19
108.000	20
109.000	17
110.000	18
111.000	18
112.000	20
113.000	17
114.000	17
115.000	18
116.000	16
117.000	17
118.000	18
119.000	20
120.000	17
121.000	17
122.000	18
123.000	17
124.000	17
125.000	15
126.000	17
127.000	16
128.000	16
129.000	13
130.000	15
131.000	14
132.000	13
133.000	15
134.000	16
135.000	14
136.000	14
137.000	18
138.000	13
139.000	15
140.000	20
141.000	19
142.000	19
143.000	22
144.000	27
145.000	24
146.000	25
147.000	27
148.000	25
149.000	22
150.000	21
151.000	20
152.000	19
153.000	19
154.000	18
155.000	20
156.000	16
157.000	17
158.000	14
159.000	13
160.000	13
161.000	15
162.000	15
163.000	17
164.000	24
165.000	30
166.000	35
167.000	42
168.000	54
169.000	55
170.000	68
171.000	64
172.000	61
173.000	58
174.000	51
175.000	39
176.000	31
177.000	33
178.000	32
179.000	29
180.000	30
181.000	32
182.000	39
183.000	47
184.000	62
185.000	83
186.000	112
187.000	130
188.000	162
189.000	199
190.000	213
191.000	219
192.000	213
193.000	186
194.000	166
195.000	131
196.000	98
197.000	69
198.000	51
199.000	38
200.000	28
201.000	21
202.000	18
203.000	15
204.000	14
205.000	13
206.000	14
207.000	14
208.000	15
209.000	17
210.000	17
211.000	16
212.000	16
213.000	16
214.000	18
215.000	19
216.000	24
217.000	25
218.000	30
219.000	32
220.000	37
221.000	41
222.000	43
223.000	42
224.000	42
225.000	38
226.000	39
227.000	32
228.000	30
229.000	23
230.000	22
231.000	16
232.000	16
233.000	15
234.000	13
235.000	12
236.000	14
237.000	14
238.000	12
239.000	12
240.000	14
241.000	12
242.000	11
243.000	15
244.000	15
245.000	17
246.000	17
247.000	19
248.000	25
249.000	33
250.000	46
251.000	64
252.000	84
253.000	107
254.000	120
255.000	135
256.000	152
257.000	155
258.000	159
259.000	143
260.000	129
261.000	105
262.000	87
263.000	66
264.000	49
265.000	35
266.000	28
267.000	21
268.000	21
269.000	21
270.000	22
271.000	25
272.000	26
273.000	28
274.000	29
275.000	33
276.000	31
277.000	30
278.000	31
279.000	29
280.000	31
281.000	30
282.000	31
283.000	40
284.000	43
285.000	47
286.000	60
287.000	69
288.000	77
289.000	86
290.000	88
291.000	85
292.000	79
293.000	70
294.000	59
295.000	49
296.000	41
297.000	30
298.000	29
299.000	26
300.000	22
301.000	20
302.000	20
303.000	19
304.000	21
305.000	22
306.000	28
307.000	24
308.000	28
309.000	29
310.000	26
311.000	35
312.000	38
313.000	42
314.000	49
315.000	72
316.000	85
317.000	115
318.000	133
319.000	182
320.000	216
321.000	261
322.000	295
323.000	324
324.000	359
325.000	342
326.000	331
327.000	299
328.000	273
329.000	225
330.000	176
331.000	135
332.000	101
333.000	75
334.000	57
335.000	46
336.000	34
337.000	34
338.000	35
339.000	39
340.000	40
341.000	45
342.000	55
343.000	74
344.000	100
345.000	136
346.000	184
347.000	286
348.000	438
349.000	670
350.000	1067
351.000	1627
352.000	2472
353.000	3634
354.000	5137
355.000	7024
356.000	9207
357.000	11447
358.000	13775
359.000	15717
360.000	17133
361.000	17849
362.000	17742
363.000	16838
364.000	15310
365.000	13133
366.000	10807
367.000	8477
368.000	6443
369.000	4572
370.000	3156
371.000	2080
372.000	1309
373.000	821
374.000	486
375.000	312
376.000	213
377.000	159
378.000	146
379.000	160
380.000	192
381.000	255
382.000	321
383.000	458
384.000	610
385.000	826
386.000	1055
387.000	1369
388.000	1671
389.000	1978
390.000	2262
391.000	2505
392.000	2626
393.000	2659
394.000	2595
395.000	2443
396.000	2161
397.000	1837
398.000	1492
399.000	1187
400.000	878
401.000	643
402.000	439
403.000	300
404.000	199
405.000	123
406.000	80
407.000	45
408.000	30
409.000	19
410.000	14
411.000	12
412.000	9
413.000	7
414.000	9
415.000	9
416.000	8
417.000	9
418.000	7
419.000	8
420.000	9
421.000	9
422.000	8
423.000	8
424.000	9
425.000	11
426.000	11
427.000	15
428.000	17
429.000	24
430.000	28
431.000	38
432.000	51
433.000	64
434.000	83
435.000	105
436.000	129
437.000	153
438.000	162
439.000	173
440.000	191
441.000	200
442.000	185
443.000	175
444.000	161
445.000	141
446.000	124
447.000	103
448.000	86
449.000	70
450.000	59
451.000	54
452.000	42
453.000	39
454.000	38
455.000	33
456.000	33
457.000	29
458.000	30
459.000	28
460.000	25
461.000	24
462.000	20
463.000	18
464.000	19
465.000	19
466.000	20
467.000	18
468.000	19
469.000	21
470.000	22
471.000	23
472.000	25
473.000	28
474.000	30
475.000	33
476.000	36
477.000	40
478.000	39
479.000	47
480.000	46
481.000	47
482.000	49
483.000	53
484.000	45
485.000	46
486.000	42
487.000	41
488.000	38
489.000	30
490.000	28
491.000	25
492.000	22
493.000	20
494.000	20
495.000	15
496.000	16
497.000	18
498.000	16
499.000	17
500.000	15
501.000	18
502.000	20
503.000	21
504.000	18
505.000	20
506.000	21
507.000	21
508.000	21
509.000	21
510.000	22
511.000	19
512.000	21
513.000	24
514.000	24
515.000	23
516.000	23
517.000	28
518.000	27
519.000	28
520.000	33
521.000	30
522.000	33
523.000	32
524.000	41
525.000	42
526.000	40
527.000	45
528.000	48
529.000	49
530.000	45
531.000	42
532.000	43
533.000	40
534.000	38
535.000	34
536.000	31
537.000	29
538.000	30
539.000	28
540.000	23
541.000	24
542.000	24
543.000	24
544.000	24
545.000	20
546.000	24
547.000	23
548.000	25
549.000	27
550.000	25
551.000	26
552.000	27
553.000	28
554.000	29
555.000	27
556.000	29
557.000	30
558.000	34
559.000	34
560.000	36
561.000	35
562.000	42
563.000	48
564.000	59
565.000	65
566.000	83
567.000	95
568.000	118
569.000	143
570.000	168
571.000	191
572.000	221
573.000	235
574.000	262
575.000	275
576.000	282
577.000	272
578.000	261
579.000	241
580.000	218
581.000	211
582.000	177
583.000	144
584.000	119
585.000	99
586.000	81
587.000	68
588.000	52
589.000	49
590.000	43
591.000	37
592.000	36
593.000	33
594.000	34
595.000	31
596.000	34
597.000	33
598.000	33
599.000	35
600.000	34
601.000	35
602.000	41
603.000	41
604.000	43
605.000	57
606.000	67
607.000	77
608.000	108
609.000	157
610.000	209
611.000	284
612.000	396
613.000	571
614.000	778
615.000	1064
616.000	1382
617.000	1796
618.000	2278
619.000	2786
620.000	3267
621.000	3758
622.000	4189
623.000	4622
624.000	4848
625.000	4954
626.000	4939
627.000	4766
628.000	4465
629.000	4051
630.000	3575
631.000	3076
632.000	2597
633.000	2091
634.000	1671
635.000	1269
636.000	970
637.000	716
638.000	517
639.000	379
640.000	267
641.000	194
642.000	150
643.000	113
644.000	92
645.000	77
646.000	66
647.000	68
648.000	61
649.000	57
650.000	58
651.000	54
652.000	61
653.000	57
654.000	56
655.000	54
656.000	59
657.000	54
658.000	60
659.000	61
660.000	60
661.000	62
662.000	63
663.000	63
664.000	69
665.000	66
666.000	70
667.000	73
668.000	79
669.000	86
670.000	88
671.000	90
672.000	103
673.000	114
674.000	126
675.000	144
676.000	167
677.000	203
678.000	242
679.000	290
680.000	342
681.000	409
682.000	474
683.000	549
684.000	621
685.000	692
686.000	748
687.000	784
688.000	828
689.000	843
690.000	826
691.000	810
692.000	744
693.000	697
694.000	638
695.000	546
696.000	476
697.000	397
698.000	324
699.000	273
700.000	219
701.000	172
702.000	147
703.000	116
704.000	96
705.000	82
706.000	74
707.000	70
708.000	63
709.000	65
710.000	61
711.000	61
712.000	58
713.000	64
714.000	66
715.000	68
716.000	70
717.000	70
718.000	75
719.000	77
720.000	84
721.000	88
722.000	90
723.000	89
724.000	97
725.000	93
726.000	95
727.000	96
728.000	103
729.000	100
730.000	99
731.000	96
732.000	94
733.000	95
734.000	93
735.000	86
736.000	84
737.000	84
738.000	74
739.000	75
740.000	77
741.000	72
742.000	71
743.000	68
744.000	73
745.000	68
746.000	72
747.000	74
748.000	66
749.000	68
750.000	74
751.000	67
752.000	70
753.000	66
754.000	70
755.000	73
756.000	67
757.000	68
758.000	67
759.000	73
760.000	71
761.000	82
762.000	73
763.000	77
764.000	75
765.000	76
766.000	77
767.000	77
768.000	81
769.000	81
770.000	78
771.000	82
772.000	85
773.000	79
774.000	86
775.000	91
776.000	93
777.000	98
778.000	100
779.000	105
780.000	115
781.000	117
782.000	118
783.000	126
784.000	124
785.000	131
786.000	139
787.000	135
788.000	135
789.000	144
790.000	143
791.000	141
792.000	151
793.000	148
794.000	150
795.000	146
796.000	151
797.000	150
798.000	144
799.000	151
800.000	148
801.000	150
802.000	145
803.000	154
804.000	151
805.000	162
806.000	166
807.000	170
808.000	185
809.000	195
810.000	202
811.000	215
812.000	229
813.000	250
814.000	259
815.000	269
816.000	293
817.000	296
818.000	303
819.000	316
820.000	310
821.000	302
822.000	291
823.000	284
824.000	263
825.000	260
826.000	226
827.000	216
828.000	199
829.000	189
830.000	175
831.000	162
832.000	148
833.000	139
834.000	135
835.000	133
836.000	126
837.000	126
838.000	129
839.000	129
840.000	130
841.000	133
842.000	126
843.000	127
844.000	132
845.000	130
846.000	130
847.000	124
848.000	122
849.000	124
850.000	120
851.000	118
852.000	122
853.000	122
854.000	119
855.000	123
856.000	121
857.000	117
858.000	115
859.000	114
860.000	117
861.000	117
862.000	120
863.000	118
864.000	117
865.000	115
866.000	117
867.000	123
868.000	120
869.000	118
870.000	119
871.000	116
872.000	122
873.000	110
874.000	115
875.000	116
876.000	117
877.000	117
878.000	117
879.000	114
880.000	118
881.000	116
882.000	118
883.000	115
884.000	117
885.000	123
886.000	120
887.000	115
888.000	119
889.000	126
890.000	124
891.000	129
892.000	129
893.000	128
894.000	133
895.000	135
896.000	133
897.000	139
898.000	142
899.000	141
900.000	142
901.000	150
902.000	151
903.000	156
904.000	147
905.000	159
906.000	160
907.000	149
908.000	159
909.000	166
910.000	167
911.000	168
912.000	166
913.000	168
914.000	172
915.000	170
916.000	171
917.000	173
918.000	169
919.000	178
920.000	174
921.000	178
922.000	181
923.000	178
924.000	183
925.000	188
926.000	189
927.000	192
928.000	191
929.000	191
930.000	204
931.000	195
932.000	202
933.000	207
934.000	219
935.000	228
936.000	229
937.000	240
938.000	234
939.000	249
940.000	257
941.000	258
942.000	264
943.000	266
944.000	262
945.000	263
946.000	257
947.000	244
948.000	254
949.000	233
950.000	231
951.000	227
952.000	212
953.000	197
954.000	205
955.000	193
956.000	190
957.000	186
958.000	184
959.000	176
960.000	175
961.000	169
962.000	184
963.000	177
964.000	181
965.000	183
966.000	181
967.000	186
968.000	186
969.000	191
970.000	184
971.000	191
972.000	187
973.000	181
974.000	182
975.000	180
976.000	186
977.000	174
978.000	172
979.000	176
980.000	168
981.000	161
982.000	159
983.000	161
984.000	153
985.000	152
986.000	149
987.000	155
988.000	154
989.000	144
990.000	142
991.000	146
992.000	144
993.000	141
994.000	138
995.000	139
996.000	140
997.000	143
998.000	140
999.000	136
1000.000	130
1001.000	141
1002.000	136
1003.000	136
1004.000	134
1005.000	139
1006.000	139
1007.000	134
1008.000	139
1009.000	137
1010.000	134
1011.000	138
1012.000	133
1013.000	140
1014.000	136
1015.000	136
1016.000	139
1017.000	135
1018.000	140
1019.000	139
1020.000	142
1021.000	138
1022.000	138
1023.000	138
1024.000	143
1025.000	135
1026.000	146
1027.000	143
1028.000	142
1029.000	145
1030.000	151
1031.000	148
1032.000	148
1033.000	147
1034.000	157
1035.000	147
1036.000	150
1037.000	152
1038.000	147
1039.000	153
1040.000	146
1041.000	147
1042.000	152
1043.000	155
1044.000	156
1045.000	149
1046.000	157
1047.000	157
1048.000	156
1049.000	151
1050.000	159
1051.000	146
1052.000	156
1053.000	157
1054.000	160
1055.000	153
1056.000	167
1057.000	166
1058.000	157
1059.000	157
1060.000	162
1061.000	162
1062.000	158
1063.000	166
1064.000	160
1065.000	161
1066.000	163
1067.000	158
1068.000	159
1069.000	160
1070.000	165
1071.000	157
1072.000	161
1073.000	162
1074.000	156
1075.000	164
1076.000	156
1077.000	160
1078.000	162
1079.000	154
1080.000	165
1081.000	159
1082.000	158
1083.000	165
1084.000	153
1085.000	158
1086.000	159
1087.000	161
1088.000	159
1089.000	164
1090.000	155
1091.000	161
1092.000	161
1093.000	172
1094.000	165
1095.000	168
1096.000	175
1097.000	171
1098.000	164
1099.000	168
1100.000	174
1101.000	168
1102.000	176
1103.000	177
1104.000	176
1105.000	174
1106.000	180
1107.000	170
1108.000	166
1109.000	167
1110.000	167
1111.000	165
1112.000	167
1113.000	169
1114.000	170
1115.000	162
1116.000	161
1117.000	161
1118.000	167
1119.000	162
1120.000	161
1121.000	163
1122.000	163
1123.000	162
1124.000	158
1125.000	158
1126.000	165
1127.000	170
1128.000	160
1129.000	163
1130.000	170
1131.000	163
1132.000	162
1133.000	169
1134.000	163
1135.000	169
1136.000	165
1137.000	165
1138.000	162
1139.000	166
1140.000	167
1141.000	168
1142.000	171
1143.000	159
1144.000	162
1145.000	165
1146.000	169
1147.000	168
1148.000	173
1149.000	174
1150.000	168
1151.000	177
1152.000	175
1153.000	171
1154.000	171
1155.000	181
1156.000	176
1157.000	191
1158.000	186
1159.000	185
1160.000	189
1161.000	182
1162.000	184
1163.000	181
1164.000	187
1165.000	189
1166.000	173
1167.000	186
1168.000	181
1169.000	173
1170.000	177
1171.000	169
1172.000	176
1173.000	167
1174.000	163
1175.000	164
1176.000	170
1177.000	166
1178.000	162
1179.000	168
1180.000	169
1181.000	159
1182.000	162
1183.000	156
1184.000	165
1185.000	159
1186.000	165
1187.000	157
1188.000	162
1189.000	164
1190.000	159
1191.000	162
1192.000	162
1193.000	157
1194.000	159
1195.000	165
1196.000	160
1197.000	155
1198.000	165
1199.000	160
1200.000	164
1201.000	168
1202.000	164
1203.000	160
1204.000	168
1205.000	165
1206.000	175
1207.000	171
1208.000	169
1209.000	164
1210.000	167
1211.000	167
1212.000	162
1213.000	165
1214.000	168
1215.000	166
1216.000	171
1217.000	162
1218.000	170
1219.000	166
1220.000	172
1221.000	164
1222.000	171
1223.000	164
1224.000	172
1225.000	179
1226.000	176
1227.000	171
1228.000	173
1229.000	166
1230.000	168
1231.000	171
1232.000	174
1233.000	173
1234.000	165
1235.000	173
1236.000	175
1237.000	167
1238.000	171
1239.000	172
1240.000	165
1241.000	168
1242.000	170
1243.000	168
1244.000	172
1245.000	168
1246.000	168
1247.000	163
1248.000	166
1249.000	171
1250.000	178
1251.000	177
1252.000	172
1253.000	164
1254.000	166
1255.000	165
1256.000	175
1257.000	172
1258.000	165
1259.000	168
1260.000	167
1261.000	169
1262.000	175
1263.000	170
1264.000	169
1265.000	168
1266.000	168
1267.000	164
1268.000	170
1269.000	168
1270.000	171
1271.000	169
1272.000	173
1273.000	172
1274.000	166
1275.000	172
1276.000	166
1277.000	173
1278.000	171
1279.000	169
1280.000	177
1281.000	175
1282.000	171
1283.000	171
1284.000	173
1285.000	170
1286.000	171
1287.000	170
1288.000	169
1289.000	183
1290.000	181
1291.000	176
1292.000	179
1293.000	194
1294.000	177
1295.000	186
1296.000	184
1297.000	192
1298.000	195
1299.000	189
1300.000	191
1301.000	200
1302.000	207
1303.000	196
1304.000	199
1305.000	191
1306.000	196
1307.000	196
1308.000	195
1309.000	194
1310.000	193
1311.000	193
1312.000	190
1313.000	186
1314.000	186
1315.000	175
1316.000	188
1317.000	185
1318.000	196
1319.000	176
1320.000	177
1321.000	186
1322.000	179
1323.000	176
1324.000	177
1325.000	183
1326.000	179
1327.000	174
1328.000	177
1329.000	167
1330.000	177
1331.000	174
1332.000	176
1333.000	179
1334.000	173
1335.000	177
1336.000	177
1337.000	167
1338.000	176
1339.000	182
1340.000	177
1341.000	176
1342.000	175
1343.000	181
1344.000	175
1345.000	181
1346.000	174
1347.000	175
1348.000	170
1349.000	182
1350.000	174
1351.000	182
1352.000	184
1353.000	179
1354.000	195
1355.000	198
1356.000	192
1357.000	206
1358.000	218
1359.000	238
1360.000	243
1361.000	260
1362.000	279
1363.000	306
1364.000	332
1365.000	368
1366.000	403
1367.000	447
1368.000	507
1369.000	531
1370.000	591
1371.000	640
1372.000	674
1373.000	742
1374.000	774
1375.000	826
1376.000	858
1377.000	873
1378.000	895
1379.000	919
1380.000	918
1381.000	908
1382.000	902
1383.000	856
1384.000	827
1385.000	791
1386.000	745
1387.000	702
1388.000	638
1389.000	603
1390.000	540
1391.000	490
1392.000	454
1393.000	406
1394.000	373
1395.000	328
1396.000	303
1397.000	272
1398.000	240
1399.000	241
1400.000	220
1401.000	211
1402.000	202
1403.000	194
1404.000	183
1405.000	187
1406.000	184
1407.000	179
1408.000	170
1409.000	175
1410.000	173
1411.000	181
1412.000	174
1413.000	183
1414.000	170
1415.000	173
1416.000	168
1417.000	180
1418.000	173
1419.000	175
1420.000	169
1421.000	175
1422.000	175
1423.000	167
1424.000	167
1425.000	176
1426.000	172
1427.000	173
1428.000	171
1429.000	170
1430.000	179
1431.000	171
1432.000	178
1433.000	168
1434.000	174
1435.000	176
1436.000	177
1437.000	171
1438.000	174
1439.000	182
1440.000	177
1441.000	172
1442.000	176
1443.000	175
1444.000	181
1445.000	178
1446.000	183
1447.000	175
1448.000	184
1449.000	190
1450.000	188
1451.000	190
1452.000	181
1453.000	186
1454.000	186
1455.000	186
1456.000	186
1457.000	187
1458.000	189
1459.000	192
1460.000	189
1461.000	185
1462.000	183
1463.000	188
1464.000	191
1465.000	191
1466.000	187
1467.000	183
1468.000	181
1469.000	187
1470.000	187
1471.000	179
1472.000	179
1473.000	183
1474.000	184
1475.000	182
1476.000	180
1477.000	184
1478.000	179
1479.000	177
1480.000	182
1481.000	181
1482.000	175
1483.000	177
1484.000	182
1485.000	179
1486.000	181
1487.000	172
1488.000	185
1489.000	184
1490.000	172
1491.000	185
1492.000	176
1493.000	184
1494.000	181
1495.000	180
1496.000	179
1497.000	188
1498.000	182
1499.000	178
1500.000	178
1501.000	177
1502.000	181
1503.000	184
1504.000	179
1505.000	191
1506.000	186
1507.000	182
1508.000	184
1509.000	186
1510.000	186
1511.000	196
1512.000	184
1513.000	192
1514.000	193
1515.000	196
1516.000	201
1517.000	197
1518.000	194
1519.000	195
1520.000	196
1521.000	191
1522.000	209
1523.000	207
1524.000	204
1525.000	215
1526.000	223
1527.000	222
1528.000	224
1529.000	235
1530.000	243
1531.000	245
1532.000	264
1533.000	276
1534.000	276
1535.000	285
1536.000	302
1537.000	297
1538.000	316
1539.000	322
1540.000	322
1541.000	334
1542.000	344
1543.000	342
1544.000	341
1545.000	349
1546.000	330
1547.000	338
1548.000	335
1549.000	323
1550.000	327
1551.000	306
1552.000	309
1553.000	306
1554.000	293
1555.000	290
1556.000	290
1557.000	287
1558.000	275
1559.000	280
1560.000	270
1561.000	281
1562.000	269
1563.000	269
1564.000	278
1565.000	278
1566.000	290
1567.000	295
1568.000	301
1569.000	302
1570.000	303
1571.000	311
1572.000	314
1573.000	331
1574.000	330
1575.000	347
1576.000	355
1577.000	358
1578.000	374
1579.000	378
1580.000	388
1581.000	391
1582.000	409
1583.000	415
1584.000	422
1585.000	435
1586.000	438
1587.000	460
1588.000	473
1589.000	470
1590.000	491
1591.000	495
1592.000	523
1593.000	523
1594.000	555
1595.000	549
1596.000	564
1597.000	564
1598.000	585
1599.000	585
1600.000	584
1601.000	602
1602.000	608
1603.000	620
1604.000	624
1605.000	626
1606.000	619
1607.000	627
1608.000	615
1609.000	617
1610.000	624
1611.000	625
1612.000	612
1613.000	611
1614.000	590
1615.000	591
1616.000	590
1617.000	580
1618.000	588
1619.000	558
1620.000	547
1621.000	547
1622.000	535
1623.000	531
1624.000	511
1625.000	493
1626.000	496
1627.000	478
1628.000	453
1629.000	453
1630.000	436
1631.000	421
1632.000	414
1633.000	411
1634.000	392
1635.000	386
1636.000	380
1637.000	370
1638.000	350
1639.000	350
1640.000	337
1641.000	322
1642.000	309
1643.000	313
1644.000	291
1645.000	295
1646.000	281
1647.000	269
1648.000	274
1649.000	265
1650.000	258
1651.000	244
1652.000	233
1653.000	232
1654.000	229
1655.000	231
1656.000	225
1657.000	217
1658.000	209
1659.000	207
1660.000	202
1661.000	210
1662.000	202
1663.000	199
1664.000	195
1665.000	186
1666.000	190
1667.000	191
1668.000	191
1669.000	186
1670.000	185
1671.000	182
1672.000	189
1673.000	181
1674.000	188
1675.000	193
1676.000	197
1677.000	195
1678.000	205
1679.000	215
1680.000	213
1681.000	226
1682.000	238
1683.000	247
1684.000	260
1685.000	273
1686.000	309
1687.000	314
1688.000	337
1689.000	355
1690.000	379
1691.000	404
1692.000	421
1693.000	441
1694.000	464
1695.000	485
1696.000	504
1697.000	513
1698.000	532
1699.000	524
1700.000	541
1701.000	550
1702.000	550
1703.000	531
1704.000	533
1705.000	521
1706.000	516
1707.000	494
1708.000	488
1709.000	449
1710.000	418
1711.000	412
1712.000	383
1713.000	361
1714.000	349
1715.000	308
1716.000	294
1717.000	271
1718.000	247
1719.000	227
1720.000	217
1721.000	200
1722.000	192
1723.000	184
1724.000	173
1725.000	175
1726.000	161
1727.000	158
1728.000	159
1729.000	154
1730.000	149
1731.000	151
1732.000	147
1733.000	148
1734.000	152
1735.000	144
1736.000	143
1737.000	141
1738.000	140
1739.000	143
1740.000	143
1741.000	145
1742.000	146
1743.000	148
1744.000	148
1745.000	142
1746.000	148
1747.000	144
1748.000	142
1749.000	142
1750.000	149
1751.000	148
1752.000	153
1753.000	150
1754.000	154
1755.000	157
1756.000	150
1757.000	155
1758.000	161
1759.000	155
1760.000	153
1761.000	159
1762.000	168
1763.000	154
1764.000	159
1765.000	166
1766.000	169
1767.000	165
1768.000	168
1769.000	171
1770.000	175
1771.000	169
1772.000	180
1773.000	175
1774.000	178
1775.000	183
1776.000	178
1777.000	190
1778.000	181
1779.000	190
1780.000	187
1781.000	192
1782.000	190
1783.000	193
1784.000	191
1785.000	198
1786.000	195
1787.000	194
1788.000	196
1789.000	196
1790.000	204
1791.000	197
1792.000	194
1793.000	196
1794.000	203
1795.000	196
1796.000	197
1797.000	193
1798.000	200
1799.000	195
1800.000	193
1801.000	193
1802.000	183
1803.000	193
1804.000	193
1805.000	188
1806.000	188
1807.000	193
1808.000	192
1809.000	176
1810.000	175
1811.000	170
1812.000	179
1813.000	178
1814.000	169
1815.000	167
1816.000	164
1817.000	163
1818.000	160
1819.000	153
1820.000	153
1821.000	146
1822.000	148
1823.000	151
1824.000	142
1825.000	145
1826.000	141
1827.000	135
1828.000	135
1829.000	136
1830.000	138
1831.000	133
1832.000	132
1833.000	134
1834.000	126
1835.000	123
1836.000	113
1837.000	116
1838.000	121
1839.000	109
1840.000	109
1841.000	116
1842.000	110
1843.000	111
1844.000	115
1845.000	108
1846.000	107
1847.000	106
1848.000	102
1849.000	101
1850.000	101
1851.000	95
1852.000	98
1853.000	99
1854.000	96
1855.000	93
1856.000	91
1857.000	93
1858.000	89
1859.000	93
1860.000	90
1861.000	92
1862.000	88
1863.000	84
1864.000	88
1865.000	90
1866.000	82
1867.000	88
1868.000	76
1869.000	80
1870.000	77
1871.000	84
1872.000	79
1873.000	80
1874.000	77
1875.000	82
1876.000	78
1877.000	76
1878.000	77
1879.000	72
1880.000	73
1881.000	80
1882.000	73
1883.000	75
1884.000	75
1885.000	71
1886.000	75
1887.000	73
1888.000	78
1889.000	77
1890.000	77
1891.000	75
1892.000	78
1893.000	81
1894.000	84
1895.000	92
1896.000	83
1897.000	90
1898.000	89
1899.000	92
1900.000	95
1901.000	103
1902.000	99
1903.000	111
1904.000	104
1905.000	110
1906.000	116
1907.000	119
1908.000	120
1909.000	121
1910.000	118
1911.000	127
1912.000	121
1913.000	126
1914.000	118
1915.000	114
1916.000	120
1917.000	115
1918.000	107
1919.000	108
1920.000	105
1921.000	101
1922.000	93
1923.000	90
1924.000	91
1925.000	87
1926.000	85
1927.000	80
1928.000	75
1929.000	74
1930.000	75
1931.000	73
1932.000	70
1933.000	71
1934.000	71
1935.000	69
1936.000	72
1937.000	77
1938.000	71
1939.000	69
1940.000	73
1941.000	67
1942.000	69
1943.000	66
1944.000	67
1945.000	65
1946.000	68
1947.000	69
1948.000	70
1949.000	70
1950.000	65
1951.000	63
1952.000	60
1953.000	62
1954.000	57
1955.000	57
1956.000	60
1957.000	61
1958.000	60
1959.000	60
1960.000	57
1961.000	60
1962.000	57
1963.000	53
1964.000	56
1965.000	56
1966.000	50
1967.000	56
1968.000	54
1969.000	48
1970.000	53
1971.000	53
1972.000	52
1973.000	58
1974.000	52
1975.000	53
1976.000	56
1977.000	53
1978.000	50
1979.000	54
1980.000	58
1981.000	51
1982.000	51
1983.000	52
1984.000	49
1985.000	51
1986.000	54
1987.000	55
1988.000	52
1989.000	48
1990.000	50
1991.000	50
1992.000	51
1993.000	48
1994.000	52
1995.000	52
1996.000	54
1997.000	52
1998.000	49
1999.000	50
2000.000	49
2001.000	51
2002.000	52
2003.000	50
2004.000	51
2005.000	49
2006.000	49
2007.000	52
2008.000	52
2009.000	51
2010.000	52
2011.000	49
2012.000	51
2013.000	52
2014.000	52
2015.000	47
2016.000	51
2017.000	51
2018.000	48
2019.000	48
2020.000	46
2021.000	51
2022.000	47
2023.000	46
2024.000	48
2025.000	48
2026.000	47
2027.000	47
2028.000	50
2029.000	47
2030.000	50
2031.000	49
2032.000	49
2033.000	43
2034.000	53
2035.000	48
2036.000	47
2037.000	51
2038.000	47
2039.000	49
2040.000	49
2041.000	47
2042.000	47
2043.000	46
2044.000	51
2045.000	49
2046.000	48
2047.000	47
2048.000	0
