Date:	23-Sep-20		Time:	11:32 PM		Version no:	0.00		Project name:	55		Sample name:	222		Section name:	section		Position	0.000000	mm	E0	0.000000	keV	E1	1.000000	keV/channel	sample surface	2.000000	cm	Tube anode:	Mo		Tube voltage:	30	kV	Tube current:	30	mA	gain	15		std. database			resultfile	result		matrix element	11		sample thickness	1.000000		air passage	0.560000	cm	comments	not in position		peaking_time	0.300000	m-sec	trigger_threshold	40.000000	V	mca_bin_width	2.000000	no:	number_mca_channels	2048.000000	no:	gap_time	2048.000000	m-sec	trigger_peaking_time	2048.000000	m-sec	GAINDAC	400		HIGHGAIN	400		TAURC	400		RCTAU	400		RCTAUFRAC	400		livetime	13.334824	seconds	runtime	15.000351	seconds	input_count_rate	47769.585089	cps	output_count_rate	42465.604889	cps	triggers	704307	seconds	events_in_run	618783	seconds	channel	content		1.000	0
2.000	0
3.000	0
4.000	0
5.000	0
6.000	0
7.000	0
8.000	0
9.000	0
10.000	0
11.000	0
12.000	0
13.000	0
14.000	0
15.000	0
16.000	0
17.000	0
18.000	0
19.000	0
20.000	0
21.000	0
22.000	0
23.000	0
24.000	0
25.000	0
26.000	0
27.000	0
28.000	0
29.000	0
30.000	0
31.000	0
32.000	0
33.000	0
34.000	0
35.000	0
36.000	0
37.000	0
38.000	0
39.000	0
40.000	0
41.000	0
42.000	0
43.000	1
44.000	0
45.000	0
46.000	1
47.000	1
48.000	1
49.000	0
50.000	1
51.000	1
52.000	2
53.000	3
54.000	4
55.000	4
56.000	6
57.000	7
58.000	14
59.000	19
60.000	23
61.000	27
62.000	28
63.000	26
64.000	30
65.000	31
66.000	28
67.000	25
68.000	26
69.000	26
70.000	27
71.000	26
72.000	25
73.000	23
74.000	25
75.000	25
76.000	25
77.000	25
78.000	26
79.000	24
80.000	25
81.000	22
82.000	24
83.000	23
84.000	24
85.000	22
86.000	27
87.000	21
88.000	23
89.000	22
90.000	20
91.000	23
92.000	22
93.000	22
94.000	23
95.000	22
96.000	20
97.000	20
98.000	21
99.000	19
100.000	22
101.000	20
102.000	19
103.000	21
104.000	18
105.000	20
106.000	21
107.000	17
108.000	19
109.000	19
110.000	18
111.000	17
112.000	20
113.000	17
114.000	17
115.000	18
116.000	20
117.000	19
118.000	17
119.000	17
120.000	17
121.000	16
122.000	17
123.000	16
124.000	16
125.000	17
126.000	14
127.000	17
128.000	14
129.000	14
130.000	14
131.000	14
132.000	15
133.000	14
134.000	14
135.000	14
136.000	16
137.000	14
138.000	15
139.000	17
140.000	17
141.000	19
142.000	19
143.000	20
144.000	22
145.000	24
146.000	21
147.000	22
148.000	20
149.000	19
150.000	19
151.000	17
152.000	16
153.000	17
154.000	17
155.000	17
156.000	17
157.000	15
158.000	12
159.000	11
160.000	12
161.000	13
162.000	13
163.000	17
164.000	19
165.000	23
166.000	28
167.000	35
168.000	42
169.000	47
170.000	51
171.000	55
172.000	51
173.000	43
174.000	38
175.000	37
176.000	29
177.000	25
178.000	24
179.000	23
180.000	25
181.000	25
182.000	29
183.000	35
184.000	44
185.000	57
186.000	70
187.000	92
188.000	111
189.000	128
190.000	137
191.000	141
192.000	140
193.000	121
194.000	114
195.000	89
196.000	66
197.000	51
198.000	37
199.000	25
200.000	21
201.000	17
202.000	15
203.000	13
204.000	13
205.000	13
206.000	12
207.000	13
208.000	12
209.000	14
210.000	14
211.000	12
212.000	13
213.000	16
214.000	15
215.000	15
216.000	17
217.000	19
218.000	24
219.000	25
220.000	28
221.000	32
222.000	29
223.000	29
224.000	31
225.000	29
226.000	25
227.000	25
228.000	22
229.000	17
230.000	19
231.000	15
232.000	14
233.000	10
234.000	13
235.000	11
236.000	12
237.000	11
238.000	11
239.000	9
240.000	12
241.000	12
242.000	11
243.000	12
244.000	11
245.000	10
246.000	11
247.000	17
248.000	23
249.000	29
250.000	37
251.000	45
252.000	58
253.000	79
254.000	90
255.000	105
256.000	119
257.000	116
258.000	119
259.000	108
260.000	93
261.000	77
262.000	63
263.000	45
264.000	34
265.000	27
266.000	23
267.000	20
268.000	17
269.000	20
270.000	20
271.000	21
272.000	23
273.000	23
274.000	24
275.000	24
276.000	21
277.000	22
278.000	23
279.000	25
280.000	24
281.000	27
282.000	28
283.000	35
284.000	40
285.000	52
286.000	57
287.000	66
288.000	81
289.000	83
290.000	78
291.000	77
292.000	71
293.000	66
294.000	53
295.000	47
296.000	34
297.000	33
298.000	24
299.000	21
300.000	17
301.000	16
302.000	15
303.000	15
304.000	18
305.000	19
306.000	18
307.000	19
308.000	22
309.000	24
310.000	27
311.000	27
312.000	32
313.000	35
314.000	42
315.000	57
316.000	67
317.000	86
318.000	116
319.000	160
320.000	202
321.000	231
322.000	257
323.000	292
324.000	311
325.000	301
326.000	288
327.000	267
328.000	238
329.000	190
330.000	153
331.000	114
332.000	88
333.000	66
334.000	45
335.000	37
336.000	30
337.000	25
338.000	23
339.000	28
340.000	32
341.000	36
342.000	43
343.000	51
344.000	66
345.000	91
346.000	131
347.000	195
348.000	288
349.000	447
350.000	704
351.000	1045
352.000	1634
353.000	2369
354.000	3366
355.000	4567
356.000	5951
357.000	7504
358.000	8928
359.000	10156
360.000	11116
361.000	11516
362.000	11472
363.000	10881
364.000	9817
365.000	8444
366.000	6943
367.000	5437
368.000	4109
369.000	2945
370.000	2026
371.000	1322
372.000	844
373.000	525
374.000	333
375.000	209
376.000	142
377.000	111
378.000	103
379.000	111
380.000	128
381.000	166
382.000	219
383.000	298
384.000	420
385.000	531
386.000	703
387.000	908
388.000	1106
389.000	1345
390.000	1536
391.000	1676
392.000	1786
393.000	1788
394.000	1739
395.000	1636
396.000	1444
397.000	1212
398.000	994
399.000	798
400.000	600
401.000	426
402.000	300
403.000	205
404.000	134
405.000	85
406.000	53
407.000	34
408.000	29
409.000	18
410.000	13
411.000	12
412.000	11
413.000	10
414.000	10
415.000	12
416.000	10
417.000	9
418.000	11
419.000	8
420.000	10
421.000	9
422.000	9
423.000	11
424.000	12
425.000	14
426.000	18
427.000	21
428.000	30
429.000	37
430.000	49
431.000	65
432.000	93
433.000	128
434.000	165
435.000	211
436.000	258
437.000	309
438.000	370
439.000	391
440.000	414
441.000	420
442.000	423
443.000	387
444.000	356
445.000	316
446.000	271
447.000	223
448.000	175
449.000	144
450.000	120
451.000	99
452.000	79
453.000	70
454.000	62
455.000	63
456.000	56
457.000	50
458.000	46
459.000	42
460.000	40
461.000	35
462.000	33
463.000	30
464.000	25
465.000	24
466.000	22
467.000	25
468.000	29
469.000	25
470.000	30
471.000	33
472.000	38
473.000	42
474.000	46
475.000	53
476.000	59
477.000	64
478.000	79
479.000	85
480.000	90
481.000	96
482.000	95
483.000	97
484.000	95
485.000	90
486.000	81
487.000	71
488.000	63
489.000	55
490.000	46
491.000	41
492.000	36
493.000	32
494.000	26
495.000	27
496.000	27
497.000	24
498.000	25
499.000	23
500.000	23
501.000	24
502.000	25
503.000	27
504.000	26
505.000	26
506.000	25
507.000	28
508.000	28
509.000	29
510.000	32
511.000	33
512.000	33
513.000	34
514.000	37
515.000	35
516.000	36
517.000	38
518.000	40
519.000	41
520.000	41
521.000	47
522.000	51
523.000	54
524.000	59
525.000	63
526.000	64
527.000	69
528.000	71
529.000	75
530.000	69
531.000	68
532.000	63
533.000	57
534.000	58
535.000	48
536.000	50
537.000	44
538.000	37
539.000	37
540.000	36
541.000	34
542.000	34
543.000	31
544.000	29
545.000	30
546.000	33
547.000	32
548.000	34
549.000	30
550.000	33
551.000	32
552.000	35
553.000	33
554.000	35
555.000	35
556.000	34
557.000	38
558.000	42
559.000	41
560.000	49
561.000	53
562.000	57
563.000	68
564.000	85
565.000	97
566.000	125
567.000	153
568.000	184
569.000	228
570.000	265
571.000	314
572.000	365
573.000	407
574.000	439
575.000	454
576.000	464
577.000	457
578.000	440
579.000	406
580.000	378
581.000	340
582.000	282
583.000	240
584.000	198
585.000	164
586.000	134
587.000	107
588.000	84
589.000	70
590.000	62
591.000	56
592.000	49
593.000	55
594.000	51
595.000	47
596.000	50
597.000	53
598.000	52
599.000	54
600.000	57
601.000	60
602.000	63
603.000	73
604.000	81
605.000	97
606.000	109
607.000	141
608.000	188
609.000	264
610.000	377
611.000	540
612.000	763
613.000	1059
614.000	1445
615.000	2001
616.000	2639
617.000	3375
618.000	4245
619.000	5197
620.000	6115
621.000	7073
622.000	7933
623.000	8622
624.000	9094
625.000	9340
626.000	9235
627.000	8997
628.000	8310
629.000	7595
630.000	6747
631.000	5758
632.000	4819
633.000	3882
634.000	3115
635.000	2370
636.000	1766
637.000	1318
638.000	939
639.000	670
640.000	473
641.000	332
642.000	249
643.000	182
644.000	143
645.000	115
646.000	99
647.000	89
648.000	83
649.000	78
650.000	81
651.000	77
652.000	72
653.000	76
654.000	77
655.000	77
656.000	77
657.000	76
658.000	77
659.000	79
660.000	81
661.000	80
662.000	77
663.000	86
664.000	88
665.000	87
666.000	91
667.000	103
668.000	100
669.000	106
670.000	121
671.000	133
672.000	141
673.000	160
674.000	178
675.000	222
676.000	266
677.000	324
678.000	389
679.000	483
680.000	590
681.000	707
682.000	830
683.000	976
684.000	1123
685.000	1242
686.000	1359
687.000	1469
688.000	1510
689.000	1526
690.000	1538
691.000	1454
692.000	1381
693.000	1264
694.000	1141
695.000	988
696.000	837
697.000	702
698.000	584
699.000	476
700.000	378
701.000	299
702.000	225
703.000	178
704.000	146
705.000	117
706.000	103
707.000	92
708.000	82
709.000	75
710.000	73
711.000	70
712.000	69
713.000	72
714.000	75
715.000	76
716.000	79
717.000	78
718.000	79
719.000	80
720.000	93
721.000	89
722.000	99
723.000	95
724.000	101
725.000	100
726.000	109
727.000	102
728.000	111
729.000	104
730.000	109
731.000	109
732.000	106
733.000	111
734.000	99
735.000	98
736.000	95
737.000	94
738.000	94
739.000	86
740.000	91
741.000	80
742.000	81
743.000	76
744.000	84
745.000	78
746.000	81
747.000	82
748.000	79
749.000	77
750.000	77
751.000	87
752.000	85
753.000	79
754.000	81
755.000	80
756.000	81
757.000	86
758.000	85
759.000	84
760.000	82
761.000	87
762.000	87
763.000	87
764.000	89
765.000	91
766.000	87
767.000	87
768.000	95
769.000	89
770.000	100
771.000	100
772.000	102
773.000	108
774.000	104
775.000	108
776.000	116
777.000	120
778.000	124
779.000	132
780.000	143
781.000	147
782.000	150
783.000	145
784.000	153
785.000	159
786.000	163
787.000	171
788.000	168
789.000	167
790.000	186
791.000	174
792.000	174
793.000	173
794.000	174
795.000	175
796.000	176
797.000	172
798.000	175
799.000	176
800.000	173
801.000	177
802.000	178
803.000	183
804.000	192
805.000	194
806.000	191
807.000	196
808.000	200
809.000	215
810.000	223
811.000	247
812.000	252
813.000	263
814.000	286
815.000	310
816.000	316
817.000	325
818.000	334
819.000	330
820.000	329
821.000	317
822.000	312
823.000	301
824.000	282
825.000	278
826.000	246
827.000	221
828.000	216
829.000	195
830.000	181
831.000	171
832.000	156
833.000	154
834.000	149
835.000	149
836.000	155
837.000	152
838.000	149
839.000	153
840.000	144
841.000	151
842.000	152
843.000	154
844.000	150
845.000	151
846.000	159
847.000	145
848.000	145
849.000	138
850.000	146
851.000	141
852.000	137
853.000	135
854.000	131
855.000	135
856.000	131
857.000	134
858.000	122
859.000	125
860.000	126
861.000	129
862.000	125
863.000	126
864.000	128
865.000	136
866.000	129
867.000	132
868.000	131
869.000	138
870.000	134
871.000	135
872.000	129
873.000	129
874.000	138
875.000	130
876.000	135
877.000	130
878.000	128
879.000	134
880.000	133
881.000	132
882.000	132
883.000	127
884.000	134
885.000	138
886.000	140
887.000	136
888.000	134
889.000	138
890.000	135
891.000	146
892.000	138
893.000	151
894.000	147
895.000	151
896.000	149
897.000	156
898.000	154
899.000	164
900.000	164
901.000	173
902.000	170
903.000	176
904.000	176
905.000	181
906.000	188
907.000	187
908.000	182
909.000	196
910.000	180
911.000	189
912.000	190
913.000	194
914.000	193
915.000	190
916.000	194
917.000	197
918.000	204
919.000	195
920.000	200
921.000	207
922.000	199
923.000	198
924.000	206
925.000	200
926.000	205
927.000	220
928.000	213
929.000	214
930.000	215
931.000	230
932.000	231
933.000	235
934.000	244
935.000	245
936.000	258
937.000	250
938.000	259
939.000	272
940.000	284
941.000	277
942.000	286
943.000	292
944.000	286
945.000	287
946.000	274
947.000	270
948.000	274
949.000	259
950.000	247
951.000	252
952.000	231
953.000	227
954.000	219
955.000	215
956.000	208
957.000	200
958.000	191
959.000	194
960.000	193
961.000	188
962.000	196
963.000	192
964.000	195
965.000	207
966.000	194
967.000	192
968.000	207
969.000	201
970.000	195
971.000	201
972.000	199
973.000	202
974.000	200
975.000	192
976.000	194
977.000	190
978.000	185
979.000	189
980.000	179
981.000	182
982.000	179
983.000	170
984.000	167
985.000	169
986.000	167
987.000	164
988.000	155
989.000	153
990.000	164
991.000	163
992.000	159
993.000	161
994.000	152
995.000	150
996.000	150
997.000	151
998.000	155
999.000	158
1000.000	147
1001.000	155
1002.000	147
1003.000	144
1004.000	151
1005.000	147
1006.000	145
1007.000	147
1008.000	146
1009.000	154
1010.000	147
1011.000	147
1012.000	147
1013.000	150
1014.000	148
1015.000	155
1016.000	151
1017.000	157
1018.000	156
1019.000	152
1020.000	156
1021.000	153
1022.000	157
1023.000	156
1024.000	152
1025.000	159
1026.000	154
1027.000	165
1028.000	160
1029.000	154
1030.000	163
1031.000	160
1032.000	153
1033.000	160
1034.000	158
1035.000	156
1036.000	159
1037.000	158
1038.000	156
1039.000	162
1040.000	160
1041.000	165
1042.000	160
1043.000	161
1044.000	169
1045.000	166
1046.000	166
1047.000	161
1048.000	163
1049.000	172
1050.000	171
1051.000	177
1052.000	177
1053.000	165
1054.000	172
1055.000	167
1056.000	170
1057.000	179
1058.000	169
1059.000	172
1060.000	172
1061.000	175
1062.000	172
1063.000	175
1064.000	184
1065.000	185
1066.000	173
1067.000	164
1068.000	169
1069.000	169
1070.000	175
1071.000	176
1072.000	173
1073.000	172
1074.000	174
1075.000	172
1076.000	171
1077.000	170
1078.000	176
1079.000	165
1080.000	174
1081.000	172
1082.000	168
1083.000	174
1084.000	165
1085.000	169
1086.000	172
1087.000	172
1088.000	178
1089.000	181
1090.000	179
1091.000	177
1092.000	178
1093.000	170
1094.000	179
1095.000	182
1096.000	181
1097.000	183
1098.000	182
1099.000	189
1100.000	191
1101.000	195
1102.000	187
1103.000	189
1104.000	183
1105.000	187
1106.000	180
1107.000	182
1108.000	184
1109.000	182
1110.000	173
1111.000	181
1112.000	184
1113.000	176
1114.000	175
1115.000	169
1116.000	177
1117.000	175
1118.000	174
1119.000	165
1120.000	172
1121.000	169
1122.000	176
1123.000	170
1124.000	170
1125.000	175
1126.000	176
1127.000	169
1128.000	176
1129.000	180
1130.000	184
1131.000	173
1132.000	173
1133.000	176
1134.000	176
1135.000	173
1136.000	177
1137.000	171
1138.000	175
1139.000	179
1140.000	175
1141.000	176
1142.000	175
1143.000	172
1144.000	175
1145.000	181
1146.000	175
1147.000	176
1148.000	184
1149.000	189
1150.000	185
1151.000	183
1152.000	184
1153.000	192
1154.000	195
1155.000	191
1156.000	194
1157.000	195
1158.000	196
1159.000	203
1160.000	201
1161.000	197
1162.000	200
1163.000	197
1164.000	198
1165.000	194
1166.000	190
1167.000	191
1168.000	186
1169.000	192
1170.000	192
1171.000	190
1172.000	183
1173.000	178
1174.000	176
1175.000	186
1176.000	178
1177.000	180
1178.000	175
1179.000	178
1180.000	179
1181.000	176
1182.000	167
1183.000	175
1184.000	169
1185.000	176
1186.000	166
1187.000	168
1188.000	174
1189.000	177
1190.000	173
1191.000	177
1192.000	171
1193.000	171
1194.000	171
1195.000	164
1196.000	171
1197.000	178
1198.000	169
1199.000	170
1200.000	166
1201.000	180
1202.000	175
1203.000	175
1204.000	175
1205.000	175
1206.000	174
1207.000	178
1208.000	176
1209.000	169
1210.000	174
1211.000	177
1212.000	178
1213.000	185
1214.000	179
1215.000	174
1216.000	181
1217.000	180
1218.000	175
1219.000	179
1220.000	182
1221.000	182
1222.000	184
1223.000	181
1224.000	181
1225.000	184
1226.000	172
1227.000	178
1228.000	190
1229.000	182
1230.000	175
1231.000	178
1232.000	182
1233.000	183
1234.000	180
1235.000	188
1236.000	182
1237.000	179
1238.000	184
1239.000	184
1240.000	178
1241.000	173
1242.000	185
1243.000	185
1244.000	187
1245.000	185
1246.000	186
1247.000	182
1248.000	186
1249.000	180
1250.000	185
1251.000	184
1252.000	189
1253.000	184
1254.000	184
1255.000	182
1256.000	186
1257.000	184
1258.000	178
1259.000	178
1260.000	186
1261.000	172
1262.000	175
1263.000	186
1264.000	179
1265.000	175
1266.000	175
1267.000	177
1268.000	178
1269.000	175
1270.000	183
1271.000	177
1272.000	174
1273.000	182
1274.000	182
1275.000	189
1276.000	181
1277.000	183
1278.000	174
1279.000	181
1280.000	168
1281.000	177
1282.000	180
1283.000	179
1284.000	186
1285.000	181
1286.000	186
1287.000	183
1288.000	180
1289.000	178
1290.000	194
1291.000	185
1292.000	194
1293.000	193
1294.000	202
1295.000	192
1296.000	203
1297.000	199
1298.000	200
1299.000	205
1300.000	201
1301.000	203
1302.000	212
1303.000	205
1304.000	219
1305.000	209
1306.000	211
1307.000	209
1308.000	210
1309.000	202
1310.000	210
1311.000	206
1312.000	207
1313.000	197
1314.000	201
1315.000	192
1316.000	192
1317.000	195
1318.000	197
1319.000	185
1320.000	190
1321.000	196
1322.000	193
1323.000	193
1324.000	184
1325.000	180
1326.000	183
1327.000	183
1328.000	177
1329.000	184
1330.000	186
1331.000	186
1332.000	187
1333.000	183
1334.000	192
1335.000	186
1336.000	185
1337.000	179
1338.000	186
1339.000	191
1340.000	183
1341.000	185
1342.000	196
1343.000	186
1344.000	180
1345.000	187
1346.000	180
1347.000	186
1348.000	189
1349.000	188
1350.000	187
1351.000	193
1352.000	190
1353.000	193
1354.000	204
1355.000	202
1356.000	211
1357.000	213
1358.000	225
1359.000	237
1360.000	252
1361.000	255
1362.000	274
1363.000	294
1364.000	325
1365.000	354
1366.000	397
1367.000	424
1368.000	457
1369.000	495
1370.000	541
1371.000	593
1372.000	624
1373.000	667
1374.000	710
1375.000	736
1376.000	787
1377.000	809
1378.000	825
1379.000	836
1380.000	819
1381.000	830
1382.000	807
1383.000	789
1384.000	769
1385.000	728
1386.000	684
1387.000	634
1388.000	596
1389.000	553
1390.000	505
1391.000	458
1392.000	432
1393.000	388
1394.000	342
1395.000	312
1396.000	290
1397.000	271
1398.000	246
1399.000	238
1400.000	219
1401.000	217
1402.000	203
1403.000	206
1404.000	197
1405.000	193
1406.000	192
1407.000	184
1408.000	188
1409.000	183
1410.000	179
1411.000	181
1412.000	190
1413.000	187
1414.000	178
1415.000	185
1416.000	182
1417.000	186
1418.000	183
1419.000	177
1420.000	183
1421.000	184
1422.000	186
1423.000	183
1424.000	173
1425.000	179
1426.000	183
1427.000	183
1428.000	177
1429.000	178
1430.000	176
1431.000	179
1432.000	186
1433.000	180
1434.000	183
1435.000	183
1436.000	178
1437.000	182
1438.000	179
1439.000	187
1440.000	190
1441.000	188
1442.000	188
1443.000	189
1444.000	189
1445.000	194
1446.000	184
1447.000	198
1448.000	188
1449.000	199
1450.000	191
1451.000	197
1452.000	192
1453.000	200
1454.000	198
1455.000	198
1456.000	201
1457.000	204
1458.000	199
1459.000	198
1460.000	197
1461.000	200
1462.000	196
1463.000	204
1464.000	197
1465.000	192
1466.000	198
1467.000	195
1468.000	192
1469.000	195
1470.000	197
1471.000	190
1472.000	195
1473.000	193
1474.000	189
1475.000	188
1476.000	193
1477.000	191
1478.000	186
1479.000	179
1480.000	181
1481.000	188
1482.000	185
1483.000	193
1484.000	194
1485.000	182
1486.000	190
1487.000	187
1488.000	185
1489.000	187
1490.000	187
1491.000	191
1492.000	185
1493.000	184
1494.000	193
1495.000	197
1496.000	189
1497.000	189
1498.000	195
1499.000	196
1500.000	189
1501.000	187
1502.000	192
1503.000	195
1504.000	193
1505.000	186
1506.000	192
1507.000	200
1508.000	187
1509.000	197
1510.000	204
1511.000	195
1512.000	199
1513.000	195
1514.000	201
1515.000	204
1516.000	199
1517.000	204
1518.000	208
1519.000	205
1520.000	210
1521.000	202
1522.000	214
1523.000	223
1524.000	223
1525.000	229
1526.000	226
1527.000	240
1528.000	246
1529.000	259
1530.000	256
1531.000	259
1532.000	272
1533.000	279
1534.000	296
1535.000	305
1536.000	306
1537.000	318
1538.000	326
1539.000	324
1540.000	336
1541.000	352
1542.000	331
1543.000	342
1544.000	340
1545.000	351
1546.000	334
1547.000	333
1548.000	319
1549.000	339
1550.000	320
1551.000	327
1552.000	312
1553.000	304
1554.000	293
1555.000	294
1556.000	284
1557.000	299
1558.000	280
1559.000	285
1560.000	285
1561.000	288
1562.000	290
1563.000	297
1564.000	299
1565.000	301
1566.000	302
1567.000	304
1568.000	316
1569.000	314
1570.000	326
1571.000	326
1572.000	337
1573.000	353
1574.000	359
1575.000	362
1576.000	364
1577.000	374
1578.000	385
1579.000	396
1580.000	411
1581.000	429
1582.000	423
1583.000	437
1584.000	457
1585.000	465
1586.000	481
1587.000	479
1588.000	502
1589.000	526
1590.000	517
1591.000	549
1592.000	558
1593.000	561
1594.000	566
1595.000	569
1596.000	578
1597.000	608
1598.000	614
1599.000	614
1600.000	613
1601.000	640
1602.000	639
1603.000	658
1604.000	656
1605.000	670
1606.000	657
1607.000	676
1608.000	669
1609.000	648
1610.000	650
1611.000	655
1612.000	657
1613.000	642
1614.000	635
1615.000	645
1616.000	623
1617.000	622
1618.000	612
1619.000	593
1620.000	584
1621.000	569
1622.000	570
1623.000	559
1624.000	539
1625.000	535
1626.000	524
1627.000	509
1628.000	502
1629.000	478
1630.000	459
1631.000	456
1632.000	443
1633.000	425
1634.000	419
1635.000	400
1636.000	396
1637.000	384
1638.000	371
1639.000	352
1640.000	349
1641.000	335
1642.000	331
1643.000	312
1644.000	302
1645.000	299
1646.000	285
1647.000	285
1648.000	262
1649.000	274
1650.000	266
1651.000	255
1652.000	251
1653.000	248
1654.000	240
1655.000	234
1656.000	237
1657.000	229
1658.000	218
1659.000	215
1660.000	222
1661.000	214
1662.000	213
1663.000	203
1664.000	197
1665.000	207
1666.000	200
1667.000	189
1668.000	188
1669.000	194
1670.000	192
1671.000	191
1672.000	194
1673.000	192
1674.000	195
1675.000	202
1676.000	193
1677.000	205
1678.000	206
1679.000	219
1680.000	227
1681.000	237
1682.000	248
1683.000	264
1684.000	279
1685.000	290
1686.000	316
1687.000	323
1688.000	349
1689.000	378
1690.000	385
1691.000	414
1692.000	438
1693.000	446
1694.000	473
1695.000	486
1696.000	506
1697.000	532
1698.000	546
1699.000	550
1700.000	565
1701.000	541
1702.000	564
1703.000	569
1704.000	548
1705.000	542
1706.000	525
1707.000	507
1708.000	495
1709.000	465
1710.000	445
1711.000	426
1712.000	393
1713.000	366
1714.000	345
1715.000	314
1716.000	299
1717.000	277
1718.000	264
1719.000	247
1720.000	219
1721.000	211
1722.000	207
1723.000	183
1724.000	176
1725.000	176
1726.000	166
1727.000	164
1728.000	157
1729.000	154
1730.000	156
1731.000	157
1732.000	163
1733.000	149
1734.000	148
1735.000	156
1736.000	158
1737.000	145
1738.000	154
1739.000	149
1740.000	154
1741.000	150
1742.000	153
1743.000	150
1744.000	152
1745.000	152
1746.000	158
1747.000	154
1748.000	153
1749.000	150
1750.000	155
1751.000	150
1752.000	157
1753.000	159
1754.000	155
1755.000	155
1756.000	156
1757.000	160
1758.000	158
1759.000	170
1760.000	168
1761.000	169
1762.000	169
1763.000	169
1764.000	174
1765.000	167
1766.000	174
1767.000	177
1768.000	178
1769.000	178
1770.000	182
1771.000	178
1772.000	185
1773.000	186
1774.000	184
1775.000	186
1776.000	193
1777.000	195
1778.000	198
1779.000	196
1780.000	194
1781.000	199
1782.000	200
1783.000	204
1784.000	196
1785.000	207
1786.000	203
1787.000	213
1788.000	203
1789.000	201
1790.000	203
1791.000	208
1792.000	209
1793.000	204
1794.000	208
1795.000	210
1796.000	202
1797.000	205
1798.000	205
1799.000	207
1800.000	202
1801.000	203
1802.000	204
1803.000	198
1804.000	200
1805.000	193
1806.000	197
1807.000	190
1808.000	199
1809.000	191
1810.000	194
1811.000	184
1812.000	184
1813.000	186
1814.000	179
1815.000	175
1816.000	173
1817.000	166
1818.000	172
1819.000	161
1820.000	156
1821.000	160
1822.000	159
1823.000	154
1824.000	147
1825.000	142
1826.000	150
1827.000	146
1828.000	143
1829.000	138
1830.000	143
1831.000	138
1832.000	139
1833.000	132
1834.000	127
1835.000	128
1836.000	125
1837.000	123
1838.000	119
1839.000	121
1840.000	115
1841.000	123
1842.000	115
1843.000	112
1844.000	111
1845.000	110
1846.000	107
1847.000	105
1848.000	113
1849.000	106
1850.000	105
1851.000	103
1852.000	100
1853.000	101
1854.000	96
1855.000	99
1856.000	100
1857.000	99
1858.000	96
1859.000	91
1860.000	92
1861.000	95
1862.000	97
1863.000	89
1864.000	90
1865.000	88
1866.000	90
1867.000	84
1868.000	88
1869.000	88
1870.000	81
1871.000	87
1872.000	84
1873.000	84
1874.000	78
1875.000	79
1876.000	81
1877.000	79
1878.000	80
1879.000	80
1880.000	79
1881.000	76
1882.000	75
1883.000	77
1884.000	80
1885.000	78
1886.000	80
1887.000	80
1888.000	79
1889.000	81
1890.000	80
1891.000	79
1892.000	87
1893.000	86
1894.000	85
1895.000	86
1896.000	95
1897.000	89
1898.000	94
1899.000	98
1900.000	99
1901.000	100
1902.000	107
1903.000	105
1904.000	108
1905.000	115
1906.000	121
1907.000	129
1908.000	123
1909.000	123
1910.000	131
1911.000	128
1912.000	123
1913.000	127
1914.000	122
1915.000	122
1916.000	120
1917.000	118
1918.000	109
1919.000	107
1920.000	106
1921.000	103
1922.000	94
1923.000	97
1924.000	93
1925.000	89
1926.000	90
1927.000	81
1928.000	81
1929.000	81
1930.000	74
1931.000	80
1932.000	77
1933.000	72
1934.000	69
1935.000	71
1936.000	72
1937.000	70
1938.000	72
1939.000	70
1940.000	74
1941.000	72
1942.000	70
1943.000	72
1944.000	71
1945.000	72
1946.000	74
1947.000	68
1948.000	70
1949.000	70
1950.000	66
1951.000	67
1952.000	70
1953.000	65
1954.000	64
1955.000	59
1956.000	65
1957.000	59
1958.000	61
1959.000	59
1960.000	61
1961.000	62
1962.000	57
1963.000	60
1964.000	59
1965.000	58
1966.000	60
1967.000	61
1968.000	54
1969.000	56
1970.000	53
1971.000	56
1972.000	56
1973.000	54
1974.000	55
1975.000	56
1976.000	56
1977.000	53
1978.000	54
1979.000	53
1980.000	56
1981.000	52
1982.000	55
1983.000	58
1984.000	54
1985.000	52
1986.000	55
1987.000	52
1988.000	53
1989.000	56
1990.000	53
1991.000	53
1992.000	54
1993.000	54
1994.000	51
1995.000	52
1996.000	51
1997.000	50
1998.000	54
1999.000	55
2000.000	50
2001.000	59
2002.000	52
2003.000	51
2004.000	54
2005.000	52
2006.000	52
2007.000	53
2008.000	54
2009.000	49
2010.000	54
2011.000	47
2012.000	55
2013.000	48
2014.000	53
2015.000	53
2016.000	52
2017.000	48
2018.000	49
2019.000	50
2020.000	50
2021.000	54
2022.000	49
2023.000	51
2024.000	51
2025.000	55
2026.000	50
2027.000	53
2028.000	52
2029.000	51
2030.000	54
2031.000	49
2032.000	51
2033.000	48
2034.000	49
2035.000	54
2036.000	51
2037.000	49
2038.000	47
2039.000	48
2040.000	50
2041.000	49
2042.000	48
2043.000	45
2044.000	49
2045.000	47
2046.000	54
2047.000	48
2048.000	0
