Date:	23-Sep-20		Time:	11:32 PM		Version no:	0.00		Project name:	55		Sample name:	222		Section name:	section		Position	0.000000	mm	E0	0.000000	keV	E1	1.000000	keV/channel	sample surface	2.000000	cm	Tube anode:	Mo		Tube voltage:	30	kV	Tube current:	30	mA	gain	15		std. database			resultfile	result		matrix element	11		sample thickness	1.000000		air passage	0.560000	cm	comments	not in position		peaking_time	0.300000	m-sec	trigger_threshold	40.000000	V	mca_bin_width	2.000000	no:	number_mca_channels	2048.000000	no:	gap_time	2048.000000	m-sec	trigger_peaking_time	2048.000000	m-sec	GAINDAC	400		HIGHGAIN	400		TAURC	400		RCTAU	400		RCTAUFRAC	400		livetime	13.334824	seconds	runtime	15.000351	seconds	input_count_rate	47769.585089	cps	output_count_rate	42465.604889	cps	triggers	704307	seconds	events_in_run	618783	seconds	channel	content		1.000	0
2.000	0
3.000	0
4.000	0
5.000	0
6.000	0
7.000	0
8.000	0
9.000	0
10.000	0
11.000	0
12.000	0
13.000	0
14.000	0
15.000	0
16.000	0
17.000	0
18.000	0
19.000	0
20.000	0
21.000	0
22.000	0
23.000	0
24.000	0
25.000	0
26.000	0
27.000	0
28.000	0
29.000	0
30.000	0
31.000	0
32.000	1
33.000	0
34.000	0
35.000	0
36.000	0
37.000	0
38.000	1
39.000	0
40.000	1
41.000	0
42.000	0
43.000	0
44.000	0
45.000	0
46.000	0
47.000	0
48.000	1
49.000	1
50.000	1
51.000	2
52.000	2
53.000	4
54.000	4
55.000	6
56.000	7
57.000	8
58.000	15
59.000	20
60.000	24
61.000	27
62.000	28
63.000	35
64.000	28
65.000	30
66.000	28
67.000	29
68.000	28
69.000	25
70.000	24
71.000	24
72.000	27
73.000	25
74.000	26
75.000	27
76.000	25
77.000	28
78.000	25
79.000	26
80.000	22
81.000	26
82.000	26
83.000	24
84.000	21
85.000	26
86.000	29
87.000	25
88.000	25
89.000	27
90.000	24
91.000	24
92.000	22
93.000	23
94.000	24
95.000	24
96.000	21
97.000	21
98.000	22
99.000	20
100.000	21
101.000	23
102.000	17
103.000	20
104.000	19
105.000	20
106.000	19
107.000	19
108.000	20
109.000	21
110.000	19
111.000	21
112.000	20
113.000	18
114.000	20
115.000	18
116.000	18
117.000	18
118.000	18
119.000	16
120.000	18
121.000	17
122.000	18
123.000	17
124.000	18
125.000	16
126.000	17
127.000	16
128.000	21
129.000	17
130.000	18
131.000	16
132.000	15
133.000	16
134.000	15
135.000	15
136.000	16
137.000	16
138.000	16
139.000	17
140.000	19
141.000	19
142.000	22
143.000	24
144.000	27
145.000	28
146.000	28
147.000	26
148.000	24
149.000	24
150.000	22
151.000	21
152.000	21
153.000	19
154.000	20
155.000	19
156.000	18
157.000	15
158.000	15
159.000	16
160.000	12
161.000	14
162.000	17
163.000	19
164.000	22
165.000	25
166.000	32
167.000	41
168.000	46
169.000	58
170.000	58
171.000	60
172.000	52
173.000	52
174.000	43
175.000	42
176.000	36
177.000	30
178.000	27
179.000	31
180.000	34
181.000	37
182.000	42
183.000	55
184.000	71
185.000	89
186.000	121
187.000	154
188.000	192
189.000	225
190.000	245
191.000	252
192.000	242
193.000	217
194.000	189
195.000	146
196.000	116
197.000	81
198.000	57
199.000	37
200.000	29
201.000	23
202.000	19
203.000	17
204.000	16
205.000	15
206.000	15
207.000	16
208.000	17
209.000	16
210.000	17
211.000	18
212.000	17
213.000	21
214.000	17
215.000	24
216.000	25
217.000	28
218.000	31
219.000	38
220.000	43
221.000	44
222.000	46
223.000	48
224.000	46
225.000	46
226.000	39
227.000	35
228.000	30
229.000	27
230.000	23
231.000	19
232.000	20
233.000	15
234.000	16
235.000	16
236.000	13
237.000	14
238.000	15
239.000	13
240.000	14
241.000	15
242.000	14
243.000	13
244.000	16
245.000	18
246.000	19
247.000	23
248.000	29
249.000	40
250.000	55
251.000	70
252.000	96
253.000	121
254.000	140
255.000	168
256.000	175
257.000	185
258.000	177
259.000	165
260.000	147
261.000	116
262.000	99
263.000	74
264.000	55
265.000	40
266.000	34
267.000	26
268.000	26
269.000	23
270.000	24
271.000	26
272.000	27
273.000	31
274.000	31
275.000	33
276.000	34
277.000	32
278.000	30
279.000	33
280.000	30
281.000	33
282.000	36
283.000	35
284.000	47
285.000	52
286.000	60
287.000	69
288.000	76
289.000	77
290.000	81
291.000	81
292.000	76
293.000	65
294.000	55
295.000	48
296.000	40
297.000	36
298.000	29
299.000	25
300.000	26
301.000	23
302.000	22
303.000	22
304.000	22
305.000	27
306.000	27
307.000	26
308.000	29
309.000	33
310.000	33
311.000	38
312.000	43
313.000	47
314.000	52
315.000	69
316.000	78
317.000	108
318.000	128
319.000	169
320.000	205
321.000	244
322.000	285
323.000	311
324.000	322
325.000	328
326.000	313
327.000	281
328.000	249
329.000	204
330.000	164
331.000	126
332.000	95
333.000	71
334.000	54
335.000	45
336.000	37
337.000	35
338.000	39
339.000	40
340.000	47
341.000	56
342.000	65
343.000	85
344.000	108
345.000	145
346.000	211
347.000	311
348.000	485
349.000	764
350.000	1190
351.000	1853
352.000	2801
353.000	4207
354.000	5862
355.000	7998
356.000	10497
357.000	13236
358.000	15849
359.000	18074
360.000	19664
361.000	20435
362.000	20330
363.000	19212
364.000	17507
365.000	15098
366.000	12388
367.000	9710
368.000	7276
369.000	5252
370.000	3585
371.000	2369
372.000	1506
373.000	935
374.000	558
375.000	352
376.000	236
377.000	182
378.000	173
379.000	190
380.000	222
381.000	282
382.000	386
383.000	513
384.000	689
385.000	932
386.000	1233
387.000	1565
388.000	1910
389.000	2250
390.000	2576
391.000	2856
392.000	3023
393.000	3055
394.000	2967
395.000	2743
396.000	2449
397.000	2088
398.000	1712
399.000	1334
400.000	988
401.000	736
402.000	504
403.000	338
404.000	221
405.000	140
406.000	86
407.000	52
408.000	35
409.000	22
410.000	13
411.000	12
412.000	11
413.000	10
414.000	10
415.000	9
416.000	7
417.000	8
418.000	10
419.000	9
420.000	8
421.000	8
422.000	7
423.000	8
424.000	8
425.000	9
426.000	11
427.000	15
428.000	17
429.000	19
430.000	26
431.000	33
432.000	48
433.000	66
434.000	81
435.000	101
436.000	124
437.000	151
438.000	170
439.000	186
440.000	192
441.000	195
442.000	190
443.000	188
444.000	166
445.000	152
446.000	126
447.000	106
448.000	90
449.000	69
450.000	58
451.000	47
452.000	39
453.000	43
454.000	35
455.000	34
456.000	34
457.000	30
458.000	30
459.000	26
460.000	25
461.000	22
462.000	19
463.000	20
464.000	19
465.000	16
466.000	18
467.000	16
468.000	18
469.000	19
470.000	18
471.000	21
472.000	22
473.000	21
474.000	26
475.000	29
476.000	31
477.000	36
478.000	42
479.000	43
480.000	46
481.000	48
482.000	50
483.000	52
484.000	45
485.000	45
486.000	41
487.000	36
488.000	36
489.000	31
490.000	26
491.000	23
492.000	24
493.000	18
494.000	18
495.000	19
496.000	18
497.000	15
498.000	17
499.000	16
500.000	18
501.000	17
502.000	16
503.000	19
504.000	15
505.000	20
506.000	20
507.000	19
508.000	20
509.000	20
510.000	21
511.000	23
512.000	24
513.000	27
514.000	25
515.000	24
516.000	25
517.000	26
518.000	27
519.000	29
520.000	29
521.000	35
522.000	33
523.000	38
524.000	41
525.000	43
526.000	43
527.000	44
528.000	48
529.000	47
530.000	47
531.000	49
532.000	44
533.000	43
534.000	38
535.000	35
536.000	34
537.000	34
538.000	29
539.000	27
540.000	28
541.000	22
542.000	23
543.000	18
544.000	23
545.000	22
546.000	23
547.000	22
548.000	25
549.000	23
550.000	23
551.000	26
552.000	26
553.000	26
554.000	26
555.000	28
556.000	25
557.000	30
558.000	31
559.000	31
560.000	33
561.000	36
562.000	37
563.000	37
564.000	39
565.000	47
566.000	53
567.000	62
568.000	66
569.000	81
570.000	91
571.000	103
572.000	107
573.000	121
574.000	130
575.000	131
576.000	139
577.000	135
578.000	130
579.000	125
580.000	112
581.000	101
582.000	93
583.000	82
584.000	66
585.000	63
586.000	56
587.000	47
588.000	41
589.000	42
590.000	33
591.000	36
592.000	30
593.000	33
594.000	30
595.000	32
596.000	33
597.000	30
598.000	35
599.000	34
600.000	37
601.000	40
602.000	42
603.000	48
604.000	48
605.000	56
606.000	63
607.000	84
608.000	104
609.000	139
610.000	196
611.000	277
612.000	382
613.000	535
614.000	737
615.000	984
616.000	1304
617.000	1681
618.000	2110
619.000	2601
620.000	3055
621.000	3503
622.000	3961
623.000	4297
624.000	4532
625.000	4658
626.000	4600
627.000	4429
628.000	4176
629.000	3762
630.000	3346
631.000	2892
632.000	2411
633.000	1927
634.000	1529
635.000	1193
636.000	887
637.000	646
638.000	468
639.000	338
640.000	248
641.000	173
642.000	132
643.000	110
644.000	85
645.000	73
646.000	66
647.000	64
648.000	62
649.000	60
650.000	62
651.000	56
652.000	58
653.000	60
654.000	56
655.000	54
656.000	59
657.000	66
658.000	60
659.000	60
660.000	59
661.000	67
662.000	59
663.000	67
664.000	68
665.000	71
666.000	74
667.000	71
668.000	75
669.000	77
670.000	82
671.000	90
672.000	102
673.000	103
674.000	115
675.000	132
676.000	162
677.000	191
678.000	224
679.000	266
680.000	318
681.000	375
682.000	454
683.000	513
684.000	581
685.000	663
686.000	698
687.000	763
688.000	761
689.000	804
690.000	789
691.000	748
692.000	701
693.000	667
694.000	596
695.000	526
696.000	449
697.000	381
698.000	328
699.000	264
700.000	208
701.000	170
702.000	141
703.000	113
704.000	98
705.000	87
706.000	74
707.000	67
708.000	65
709.000	65
710.000	65
711.000	66
712.000	66
713.000	62
714.000	69
715.000	72
716.000	72
717.000	78
718.000	81
719.000	85
720.000	85
721.000	90
722.000	91
723.000	93
724.000	96
725.000	98
726.000	95
727.000	93
728.000	100
729.000	97
730.000	92
731.000	97
732.000	91
733.000	89
734.000	91
735.000	87
736.000	87
737.000	79
738.000	79
739.000	80
740.000	75
741.000	69
742.000	74
743.000	78
744.000	71
745.000	68
746.000	70
747.000	69
748.000	75
749.000	70
750.000	72
751.000	75
752.000	75
753.000	72
754.000	75
755.000	71
756.000	74
757.000	73
758.000	76
759.000	71
760.000	70
761.000	76
762.000	74
763.000	74
764.000	75
765.000	76
766.000	80
767.000	78
768.000	82
769.000	82
770.000	83
771.000	86
772.000	84
773.000	85
774.000	85
775.000	91
776.000	98
777.000	102
778.000	105
779.000	107
780.000	113
781.000	117
782.000	122
783.000	124
784.000	131
785.000	133
786.000	129
787.000	139
788.000	142
789.000	150
790.000	142
791.000	148
792.000	148
793.000	146
794.000	146
795.000	145
796.000	153
797.000	150
798.000	155
799.000	147
800.000	149
801.000	153
802.000	153
803.000	157
804.000	155
805.000	158
806.000	170
807.000	174
808.000	180
809.000	195
810.000	213
811.000	209
812.000	249
813.000	246
814.000	277
815.000	278
816.000	290
817.000	296
818.000	313
819.000	314
820.000	324
821.000	306
822.000	311
823.000	300
824.000	279
825.000	249
826.000	242
827.000	218
828.000	199
829.000	186
830.000	168
831.000	164
832.000	157
833.000	146
834.000	138
835.000	141
836.000	132
837.000	135
838.000	133
839.000	139
840.000	132
841.000	126
842.000	129
843.000	134
844.000	129
845.000	134
846.000	133
847.000	132
848.000	132
849.000	134
850.000	125
851.000	123
852.000	125
853.000	130
854.000	121
855.000	129
856.000	126
857.000	120
858.000	122
859.000	120
860.000	118
861.000	120
862.000	120
863.000	121
864.000	120
865.000	115
866.000	121
867.000	121
868.000	120
869.000	126
870.000	118
871.000	124
872.000	121
873.000	127
874.000	122
875.000	118
876.000	123
877.000	123
878.000	121
879.000	122
880.000	126
881.000	128
882.000	121
883.000	118
884.000	125
885.000	123
886.000	123
887.000	129
888.000	124
889.000	125
890.000	126
891.000	125
892.000	134
893.000	129
894.000	130
895.000	137
896.000	141
897.000	134
898.000	133
899.000	148
900.000	146
901.000	146
902.000	146
903.000	156
904.000	154
905.000	161
906.000	153
907.000	166
908.000	168
909.000	168
910.000	170
911.000	169
912.000	166
913.000	175
914.000	177
915.000	171
916.000	178
917.000	178
918.000	170
919.000	176
920.000	184
921.000	182
922.000	187
923.000	187
924.000	190
925.000	197
926.000	196
927.000	191
928.000	196
929.000	199
930.000	211
931.000	208
932.000	210
933.000	225
934.000	227
935.000	232
936.000	227
937.000	240
938.000	243
939.000	252
940.000	275
941.000	265
942.000	272
943.000	259
944.000	259
945.000	278
946.000	266
947.000	259
948.000	258
949.000	242
950.000	242
951.000	230
952.000	217
953.000	224
954.000	219
955.000	203
956.000	195
957.000	186
958.000	197
959.000	191
960.000	182
961.000	183
962.000	191
963.000	195
964.000	184
965.000	184
966.000	191
967.000	193
968.000	185
969.000	184
970.000	186
971.000	185
972.000	190
973.000	196
974.000	188
975.000	186
976.000	189
977.000	184
978.000	179
979.000	180
980.000	179
981.000	170
982.000	166
983.000	163
984.000	161
985.000	161
986.000	155
987.000	154
988.000	155
989.000	153
990.000	146
991.000	154
992.000	155
993.000	143
994.000	145
995.000	145
996.000	146
997.000	138
998.000	143
999.000	141
1000.000	141
1001.000	146
1002.000	138
1003.000	139
1004.000	135
1005.000	141
1006.000	140
1007.000	145
1008.000	134
1009.000	137
1010.000	141
1011.000	133
1012.000	142
1013.000	133
1014.000	138
1015.000	141
1016.000	137
1017.000	138
1018.000	142
1019.000	138
1020.000	145
1021.000	139
1022.000	142
1023.000	139
1024.000	149
1025.000	143
1026.000	147
1027.000	146
1028.000	137
1029.000	150
1030.000	151
1031.000	150
1032.000	146
1033.000	149
1034.000	147
1035.000	149
1036.000	147
1037.000	145
1038.000	154
1039.000	154
1040.000	151
1041.000	154
1042.000	147
1043.000	158
1044.000	154
1045.000	151
1046.000	156
1047.000	159
1048.000	159
1049.000	155
1050.000	158
1051.000	154
1052.000	159
1053.000	156
1054.000	159
1055.000	162
1056.000	162
1057.000	163
1058.000	164
1059.000	165
1060.000	163
1061.000	164
1062.000	163
1063.000	168
1064.000	171
1065.000	165
1066.000	164
1067.000	163
1068.000	163
1069.000	162
1070.000	174
1071.000	160
1072.000	161
1073.000	164
1074.000	162
1075.000	169
1076.000	167
1077.000	168
1078.000	157
1079.000	169
1080.000	164
1081.000	168
1082.000	158
1083.000	163
1084.000	163
1085.000	162
1086.000	161
1087.000	163
1088.000	169
1089.000	160
1090.000	171
1091.000	169
1092.000	174
1093.000	178
1094.000	168
1095.000	179
1096.000	174
1097.000	186
1098.000	173
1099.000	175
1100.000	179
1101.000	180
1102.000	173
1103.000	186
1104.000	180
1105.000	174
1106.000	173
1107.000	177
1108.000	174
1109.000	173
1110.000	165
1111.000	171
1112.000	179
1113.000	169
1114.000	167
1115.000	173
1116.000	168
1117.000	166
1118.000	172
1119.000	162
1120.000	164
1121.000	168
1122.000	168
1123.000	169
1124.000	163
1125.000	167
1126.000	159
1127.000	161
1128.000	169
1129.000	164
1130.000	166
1131.000	167
1132.000	166
1133.000	167
1134.000	173
1135.000	170
1136.000	177
1137.000	168
1138.000	168
1139.000	167
1140.000	167
1141.000	170
1142.000	175
1143.000	173
1144.000	165
1145.000	173
1146.000	173
1147.000	165
1148.000	177
1149.000	169
1150.000	174
1151.000	177
1152.000	176
1153.000	173
1154.000	179
1155.000	186
1156.000	184
1157.000	192
1158.000	186
1159.000	190
1160.000	191
1161.000	185
1162.000	196
1163.000	196
1164.000	198
1165.000	189
1166.000	187
1167.000	186
1168.000	192
1169.000	179
1170.000	187
1171.000	181
1172.000	176
1173.000	179
1174.000	171
1175.000	175
1176.000	170
1177.000	167
1178.000	173
1179.000	166
1180.000	165
1181.000	170
1182.000	163
1183.000	166
1184.000	163
1185.000	170
1186.000	166
1187.000	162
1188.000	167
1189.000	166
1190.000	164
1191.000	160
1192.000	167
1193.000	162
1194.000	164
1195.000	156
1196.000	161
1197.000	171
1198.000	165
1199.000	166
1200.000	163
1201.000	168
1202.000	166
1203.000	173
1204.000	167
1205.000	169
1206.000	172
1207.000	165
1208.000	171
1209.000	168
1210.000	168
1211.000	168
1212.000	170
1213.000	175
1214.000	164
1215.000	167
1216.000	180
1217.000	167
1218.000	172
1219.000	173
1220.000	174
1221.000	172
1222.000	173
1223.000	180
1224.000	173
1225.000	180
1226.000	176
1227.000	168
1228.000	179
1229.000	173
1230.000	167
1231.000	175
1232.000	172
1233.000	176
1234.000	178
1235.000	175
1236.000	173
1237.000	182
1238.000	176
1239.000	181
1240.000	178
1241.000	172
1242.000	176
1243.000	177
1244.000	173
1245.000	166
1246.000	172
1247.000	177
1248.000	172
1249.000	169
1250.000	175
1251.000	178
1252.000	170
1253.000	174
1254.000	169
1255.000	170
1256.000	175
1257.000	175
1258.000	175
1259.000	169
1260.000	174
1261.000	172
1262.000	173
1263.000	174
1264.000	171
1265.000	177
1266.000	172
1267.000	176
1268.000	174
1269.000	175
1270.000	169
1271.000	172
1272.000	181
1273.000	174
1274.000	171
1275.000	172
1276.000	166
1277.000	167
1278.000	170
1279.000	168
1280.000	182
1281.000	172
1282.000	169
1283.000	176
1284.000	178
1285.000	176
1286.000	173
1287.000	171
1288.000	175
1289.000	183
1290.000	175
1291.000	178
1292.000	181
1293.000	185
1294.000	183
1295.000	187
1296.000	185
1297.000	177
1298.000	197
1299.000	189
1300.000	194
1301.000	197
1302.000	196
1303.000	196
1304.000	191
1305.000	195
1306.000	190
1307.000	196
1308.000	185
1309.000	191
1310.000	185
1311.000	197
1312.000	188
1313.000	187
1314.000	183
1315.000	185
1316.000	181
1317.000	188
1318.000	188
1319.000	183
1320.000	180
1321.000	180
1322.000	179
1323.000	186
1324.000	181
1325.000	181
1326.000	178
1327.000	181
1328.000	178
1329.000	182
1330.000	180
1331.000	175
1332.000	179
1333.000	181
1334.000	179
1335.000	183
1336.000	174
1337.000	191
1338.000	180
1339.000	192
1340.000	171
1341.000	183
1342.000	180
1343.000	177
1344.000	172
1345.000	182
1346.000	185
1347.000	187
1348.000	183
1349.000	175
1350.000	184
1351.000	181
1352.000	181
1353.000	194
1354.000	198
1355.000	199
1356.000	210
1357.000	213
1358.000	230
1359.000	244
1360.000	244
1361.000	277
1362.000	295
1363.000	322
1364.000	348
1365.000	390
1366.000	427
1367.000	463
1368.000	507
1369.000	555
1370.000	610
1371.000	664
1372.000	726
1373.000	771
1374.000	825
1375.000	869
1376.000	892
1377.000	938
1378.000	946
1379.000	961
1380.000	964
1381.000	952
1382.000	932
1383.000	908
1384.000	879
1385.000	825
1386.000	783
1387.000	727
1388.000	679
1389.000	618
1390.000	579
1391.000	517
1392.000	471
1393.000	424
1394.000	374
1395.000	340
1396.000	296
1397.000	280
1398.000	262
1399.000	247
1400.000	222
1401.000	209
1402.000	205
1403.000	205
1404.000	187
1405.000	186
1406.000	185
1407.000	184
1408.000	169
1409.000	183
1410.000	179
1411.000	176
1412.000	177
1413.000	174
1414.000	175
1415.000	177
1416.000	180
1417.000	172
1418.000	169
1419.000	172
1420.000	181
1421.000	178
1422.000	173
1423.000	173
1424.000	171
1425.000	169
1426.000	176
1427.000	176
1428.000	174
1429.000	178
1430.000	176
1431.000	171
1432.000	176
1433.000	181
1434.000	179
1435.000	181
1436.000	179
1437.000	180
1438.000	174
1439.000	175
1440.000	181
1441.000	176
1442.000	182
1443.000	169
1444.000	186
1445.000	183
1446.000	184
1447.000	184
1448.000	185
1449.000	185
1450.000	187
1451.000	192
1452.000	187
1453.000	190
1454.000	189
1455.000	192
1456.000	186
1457.000	189
1458.000	195
1459.000	186
1460.000	185
1461.000	183
1462.000	189
1463.000	179
1464.000	181
1465.000	191
1466.000	191
1467.000	182
1468.000	183
1469.000	186
1470.000	186
1471.000	179
1472.000	184
1473.000	180
1474.000	186
1475.000	184
1476.000	182
1477.000	182
1478.000	184
1479.000	184
1480.000	185
1481.000	182
1482.000	189
1483.000	182
1484.000	182
1485.000	174
1486.000	183
1487.000	184
1488.000	184
1489.000	177
1490.000	183
1491.000	182
1492.000	181
1493.000	179
1494.000	183
1495.000	183
1496.000	182
1497.000	188
1498.000	176
1499.000	186
1500.000	185
1501.000	191
1502.000	182
1503.000	184
1504.000	185
1505.000	188
1506.000	181
1507.000	186
1508.000	187
1509.000	192
1510.000	192
1511.000	190
1512.000	192
1513.000	195
1514.000	195
1515.000	189
1516.000	200
1517.000	191
1518.000	197
1519.000	195
1520.000	203
1521.000	200
1522.000	209
1523.000	204
1524.000	208
1525.000	225
1526.000	221
1527.000	240
1528.000	230
1529.000	239
1530.000	252
1531.000	257
1532.000	268
1533.000	270
1534.000	278
1535.000	285
1536.000	307
1537.000	312
1538.000	324
1539.000	326
1540.000	339
1541.000	340
1542.000	358
1543.000	341
1544.000	352
1545.000	349
1546.000	368
1547.000	353
1548.000	338
1549.000	336
1550.000	332
1551.000	331
1552.000	318
1553.000	313
1554.000	300
1555.000	293
1556.000	291
1557.000	286
1558.000	276
1559.000	275
1560.000	284
1561.000	281
1562.000	282
1563.000	281
1564.000	287
1565.000	286
1566.000	289
1567.000	294
1568.000	302
1569.000	300
1570.000	313
1571.000	320
1572.000	325
1573.000	330
1574.000	335
1575.000	334
1576.000	352
1577.000	360
1578.000	369
1579.000	366
1580.000	382
1581.000	410
1582.000	393
1583.000	407
1584.000	423
1585.000	444
1586.000	455
1587.000	459
1588.000	465
1589.000	476
1590.000	492
1591.000	496
1592.000	526
1593.000	532
1594.000	543
1595.000	559
1596.000	548
1597.000	569
1598.000	576
1599.000	593
1600.000	590
1601.000	607
1602.000	616
1603.000	611
1604.000	617
1605.000	614
1606.000	620
1607.000	613
1608.000	644
1609.000	625
1610.000	622
1611.000	625
1612.000	633
1613.000	617
1614.000	605
1615.000	596
1616.000	602
1617.000	585
1618.000	574
1619.000	567
1620.000	569
1621.000	552
1622.000	540
1623.000	536
1624.000	519
1625.000	512
1626.000	502
1627.000	485
1628.000	480
1629.000	465
1630.000	440
1631.000	429
1632.000	414
1633.000	421
1634.000	394
1635.000	394
1636.000	380
1637.000	367
1638.000	360
1639.000	346
1640.000	333
1641.000	331
1642.000	311
1643.000	308
1644.000	303
1645.000	294
1646.000	285
1647.000	274
1648.000	271
1649.000	257
1650.000	258
1651.000	245
1652.000	242
1653.000	227
1654.000	235
1655.000	237
1656.000	227
1657.000	224
1658.000	220
1659.000	207
1660.000	204
1661.000	199
1662.000	200
1663.000	195
1664.000	192
1665.000	195
1666.000	187
1667.000	192
1668.000	186
1669.000	194
1670.000	184
1671.000	188
1672.000	181
1673.000	186
1674.000	182
1675.000	189
1676.000	193
1677.000	198
1678.000	205
1679.000	213
1680.000	219
1681.000	225
1682.000	244
1683.000	257
1684.000	267
1685.000	281
1686.000	302
1687.000	320
1688.000	352
1689.000	358
1690.000	386
1691.000	405
1692.000	425
1693.000	433
1694.000	458
1695.000	498
1696.000	508
1697.000	513
1698.000	538
1699.000	559
1700.000	550
1701.000	555
1702.000	554
1703.000	569
1704.000	551
1705.000	546
1706.000	523
1707.000	504
1708.000	487
1709.000	458
1710.000	452
1711.000	421
1712.000	386
1713.000	369
1714.000	346
1715.000	317
1716.000	298
1717.000	278
1718.000	254
1719.000	242
1720.000	220
1721.000	204
1722.000	195
1723.000	186
1724.000	170
1725.000	166
1726.000	167
1727.000	157
1728.000	158
1729.000	155
1730.000	144
1731.000	148
1732.000	146
1733.000	149
1734.000	147
1735.000	148
1736.000	142
1737.000	142
1738.000	143
1739.000	146
1740.000	147
1741.000	145
1742.000	149
1743.000	148
1744.000	139
1745.000	143
1746.000	150
1747.000	155
1748.000	148
1749.000	149
1750.000	149
1751.000	152
1752.000	148
1753.000	145
1754.000	153
1755.000	152
1756.000	149
1757.000	151
1758.000	156
1759.000	161
1760.000	158
1761.000	158
1762.000	166
1763.000	162
1764.000	163
1765.000	170
1766.000	164
1767.000	172
1768.000	162
1769.000	169
1770.000	176
1771.000	176
1772.000	174
1773.000	177
1774.000	176
1775.000	185
1776.000	182
1777.000	191
1778.000	187
1779.000	180
1780.000	194
1781.000	199
1782.000	198
1783.000	196
1784.000	194
1785.000	198
1786.000	196
1787.000	205
1788.000	191
1789.000	193
1790.000	199
1791.000	208
1792.000	199
1793.000	206
1794.000	205
1795.000	201
1796.000	191
1797.000	194
1798.000	201
1799.000	203
1800.000	198
1801.000	199
1802.000	196
1803.000	201
1804.000	189
1805.000	195
1806.000	194
1807.000	192
1808.000	182
1809.000	186
1810.000	184
1811.000	174
1812.000	180
1813.000	167
1814.000	173
1815.000	170
1816.000	176
1817.000	161
1818.000	162
1819.000	164
1820.000	159
1821.000	165
1822.000	155
1823.000	152
1824.000	149
1825.000	148
1826.000	140
1827.000	145
1828.000	146
1829.000	137
1830.000	130
1831.000	134
1832.000	128
1833.000	131
1834.000	128
1835.000	126
1836.000	122
1837.000	116
1838.000	117
1839.000	108
1840.000	114
1841.000	117
1842.000	114
1843.000	108
1844.000	112
1845.000	108
1846.000	99
1847.000	107
1848.000	103
1849.000	104
1850.000	95
1851.000	102
1852.000	102
1853.000	96
1854.000	93
1855.000	91
1856.000	91
1857.000	93
1858.000	92
1859.000	90
1860.000	92
1861.000	87
1862.000	87
1863.000	87
1864.000	90
1865.000	90
1866.000	85
1867.000	84
1868.000	81
1869.000	83
1870.000	80
1871.000	84
1872.000	76
1873.000	78
1874.000	79
1875.000	84
1876.000	84
1877.000	79
1878.000	74
1879.000	70
1880.000	75
1881.000	75
1882.000	76
1883.000	75
1884.000	75
1885.000	72
1886.000	75
1887.000	79
1888.000	78
1889.000	79
1890.000	75
1891.000	80
1892.000	84
1893.000	84
1894.000	84
1895.000	87
1896.000	82
1897.000	83
1898.000	88
1899.000	96
1900.000	94
1901.000	105
1902.000	106
1903.000	108
1904.000	112
1905.000	113
1906.000	120
1907.000	114
1908.000	118
1909.000	125
1910.000	125
1911.000	121
1912.000	121
1913.000	120
1914.000	123
1915.000	118
1916.000	117
1917.000	113
1918.000	114
1919.000	107
1920.000	100
1921.000	100
1922.000	100
1923.000	96
1924.000	84
1925.000	87
1926.000	87
1927.000	86
1928.000	79
1929.000	78
1930.000	74
1931.000	74
1932.000	73
1933.000	70
1934.000	68
1935.000	68
1936.000	70
1937.000	68
1938.000	69
1939.000	68
1940.000	68
1941.000	72
1942.000	70
1943.000	68
1944.000	71
1945.000	63
1946.000	64
1947.000	69
1948.000	73
1949.000	70
1950.000	67
1951.000	65
1952.000	61
1953.000	63
1954.000	65
1955.000	62
1956.000	62
1957.000	67
1958.000	56
1959.000	56
1960.000	56
1961.000	54
1962.000	59
1963.000	59
1964.000	55
1965.000	55
1966.000	57
1967.000	55
1968.000	51
1969.000	56
1970.000	53
1971.000	54
1972.000	53
1973.000	53
1974.000	54
1975.000	55
1976.000	54
1977.000	54
1978.000	53
1979.000	55
1980.000	53
1981.000	54
1982.000	52
1983.000	53
1984.000	50
1985.000	54
1986.000	56
1987.000	52
1988.000	53
1989.000	53
1990.000	51
1991.000	52
1992.000	47
1993.000	50
1994.000	50
1995.000	51
1996.000	45
1997.000	51
1998.000	50
1999.000	50
2000.000	52
2001.000	51
2002.000	50
2003.000	45
2004.000	51
2005.000	48
2006.000	48
2007.000	47
2008.000	47
2009.000	48
2010.000	47
2011.000	47
2012.000	48
2013.000	49
2014.000	52
2015.000	48
2016.000	50
2017.000	47
2018.000	48
2019.000	49
2020.000	51
2021.000	50
2022.000	50
2023.000	48
2024.000	47
2025.000	50
2026.000	46
2027.000	48
2028.000	47
2029.000	49
2030.000	51
2031.000	46
2032.000	49
2033.000	48
2034.000	50
2035.000	46
2036.000	49
2037.000	52
2038.000	46
2039.000	49
2040.000	48
2041.000	50
2042.000	48
2043.000	47
2044.000	48
2045.000	49
2046.000	44
2047.000	50
2048.000	0
