Date:	22-Sep-20		Time:	10:49 PM		Version no:	0.00		Project name:	55		Sample name:	222		Section name:	section		Position	0.000000	mm	E0	0.000000	keV	E1	1.000000	keV/channel	sample surface	2.000000	cm	Tube anode:	Mo		Tube voltage:	30	kV	Tube current:	30	mA	gain	15		std. database			resultfile	result		matrix element	11		sample thickness	1.000000		air passage	0.560000	cm	comments	not in position		peaking_time	0.300000	m-sec	trigger_threshold	40.000000	V	mca_bin_width	2.000000	no:	number_mca_channels	2048.000000	no:	gap_time	2048.000000	m-sec	trigger_peaking_time	2048.000000	m-sec	GAINDAC	400		HIGHGAIN	400		TAURC	400		RCTAU	400		RCTAUFRAC	400		livetime	12.778311	seconds	runtime	15.000098	seconds	input_count_rate	8453.386602	cps	output_count_rate	7201.286285	cps	triggers	126178	seconds	events_in_run	98622	seconds	channel	content		1.000	0
2.000	0
3.000	0
4.000	0
5.000	0
6.000	0
7.000	0
8.000	0
9.000	0
10.000	0
11.000	0
12.000	0
13.000	0
14.000	0
15.000	0
16.000	0
17.000	0
18.000	0
19.000	0
20.000	0
21.000	0
22.000	0
23.000	0
24.000	0
25.000	0
26.000	0
27.000	0
28.000	0
29.000	0
30.000	0
31.000	1
32.000	1
33.000	0
34.000	0
35.000	0
36.000	0
37.000	0
38.000	0
39.000	0
40.000	1
41.000	0
42.000	1
43.000	0
44.000	0
45.000	0
46.000	0
47.000	0
48.000	0
49.000	1
50.000	1
51.000	1
52.000	2
53.000	3
54.000	5
55.000	4
56.000	5
57.000	8
58.000	13
59.000	16
60.000	23
61.000	24
62.000	30
63.000	31
64.000	30
65.000	28
66.000	27
67.000	25
68.000	26
69.000	26
70.000	25
71.000	25
72.000	24
73.000	24
74.000	24
75.000	24
76.000	26
77.000	25
78.000	23
79.000	22
80.000	23
81.000	23
82.000	27
83.000	27
84.000	24
85.000	26
86.000	25
87.000	23
88.000	25
89.000	22
90.000	26
91.000	22
92.000	21
93.000	23
94.000	19
95.000	20
96.000	20
97.000	21
98.000	21
99.000	19
100.000	19
101.000	24
102.000	21
103.000	18
104.000	20
105.000	22
106.000	19
107.000	18
108.000	19
109.000	19
110.000	17
111.000	18
112.000	17
113.000	17
114.000	19
115.000	16
116.000	18
117.000	16
118.000	18
119.000	17
120.000	18
121.000	15
122.000	16
123.000	20
124.000	17
125.000	16
126.000	15
127.000	15
128.000	17
129.000	15
130.000	16
131.000	13
132.000	17
133.000	15
134.000	14
135.000	17
136.000	16
137.000	14
138.000	15
139.000	17
140.000	18
141.000	20
142.000	24
143.000	23
144.000	24
145.000	26
146.000	25
147.000	27
148.000	26
149.000	20
150.000	22
151.000	21
152.000	20
153.000	19
154.000	17
155.000	17
156.000	19
157.000	17
158.000	16
159.000	15
160.000	15
161.000	14
162.000	16
163.000	17
164.000	20
165.000	27
166.000	37
167.000	44
168.000	52
169.000	60
170.000	64
171.000	66
172.000	61
173.000	60
174.000	50
175.000	39
176.000	32
177.000	34
178.000	28
179.000	28
180.000	29
181.000	31
182.000	38
183.000	47
184.000	62
185.000	79
186.000	102
187.000	122
188.000	152
189.000	172
190.000	194
191.000	210
192.000	197
193.000	176
194.000	147
195.000	122
196.000	96
197.000	66
198.000	44
199.000	33
200.000	27
201.000	19
202.000	17
203.000	15
204.000	14
205.000	16
206.000	16
207.000	15
208.000	16
209.000	17
210.000	16
211.000	13
212.000	16
213.000	17
214.000	17
215.000	19
216.000	21
217.000	26
218.000	27
219.000	30
220.000	37
221.000	37
222.000	41
223.000	40
224.000	41
225.000	35
226.000	35
227.000	29
228.000	26
229.000	23
230.000	19
231.000	18
232.000	17
233.000	15
234.000	15
235.000	13
236.000	13
237.000	12
238.000	12
239.000	12
240.000	12
241.000	12
242.000	13
243.000	14
244.000	13
245.000	16
246.000	18
247.000	20
248.000	30
249.000	36
250.000	50
251.000	69
252.000	95
253.000	110
254.000	143
255.000	155
256.000	170
257.000	176
258.000	174
259.000	164
260.000	143
261.000	115
262.000	92
263.000	71
264.000	49
265.000	37
266.000	29
267.000	25
268.000	22
269.000	20
270.000	25
271.000	26
272.000	26
273.000	30
274.000	30
275.000	38
276.000	31
277.000	32
278.000	31
279.000	32
280.000	30
281.000	30
282.000	29
283.000	30
284.000	37
285.000	42
286.000	49
287.000	53
288.000	65
289.000	64
290.000	69
291.000	64
292.000	62
293.000	55
294.000	48
295.000	40
296.000	36
297.000	27
298.000	26
299.000	20
300.000	19
301.000	19
302.000	17
303.000	20
304.000	19
305.000	21
306.000	23
307.000	24
308.000	22
309.000	27
310.000	28
311.000	32
312.000	37
313.000	43
314.000	51
315.000	61
316.000	81
317.000	108
318.000	137
319.000	178
320.000	223
321.000	263
322.000	316
323.000	337
324.000	360
325.000	355
326.000	347
327.000	299
328.000	276
329.000	231
330.000	168
331.000	137
332.000	95
333.000	73
334.000	58
335.000	43
336.000	36
337.000	35
338.000	34
339.000	33
340.000	39
341.000	43
342.000	55
343.000	74
344.000	92
345.000	124
346.000	173
347.000	260
348.000	388
349.000	628
350.000	971
351.000	1485
352.000	2267
353.000	3304
354.000	4718
355.000	6412
356.000	8390
357.000	10496
358.000	12541
359.000	14340
360.000	15633
361.000	16395
362.000	16136
363.000	15268
364.000	13913
365.000	11996
366.000	9887
367.000	7747
368.000	5862
369.000	4205
370.000	2891
371.000	1920
372.000	1202
373.000	746
374.000	452
375.000	292
376.000	186
377.000	146
378.000	136
379.000	142
380.000	181
381.000	228
382.000	303
383.000	416
384.000	554
385.000	743
386.000	957
387.000	1248
388.000	1526
389.000	1809
390.000	2091
391.000	2296
392.000	2438
393.000	2442
394.000	2406
395.000	2216
396.000	1984
397.000	1711
398.000	1372
399.000	1082
400.000	794
401.000	590
402.000	412
403.000	273
404.000	183
405.000	111
406.000	69
407.000	42
408.000	29
409.000	20
410.000	15
411.000	10
412.000	9
413.000	9
414.000	8
415.000	6
416.000	7
417.000	9
418.000	8
419.000	7
420.000	6
421.000	10
422.000	10
423.000	8
424.000	10
425.000	9
426.000	11
427.000	15
428.000	16
429.000	20
430.000	28
431.000	41
432.000	57
433.000	68
434.000	89
435.000	110
436.000	132
437.000	149
438.000	176
439.000	198
440.000	201
441.000	204
442.000	207
443.000	191
444.000	176
445.000	154
446.000	132
447.000	118
448.000	92
449.000	75
450.000	60
451.000	53
452.000	44
453.000	40
454.000	35
455.000	32
456.000	34
457.000	31
458.000	28
459.000	30
460.000	24
461.000	22
462.000	20
463.000	20
464.000	20
465.000	16
466.000	18
467.000	19
468.000	21
469.000	22
470.000	25
471.000	24
472.000	26
473.000	30
474.000	30
475.000	35
476.000	37
477.000	41
478.000	39
479.000	47
480.000	47
481.000	53
482.000	53
483.000	53
484.000	48
485.000	44
486.000	43
487.000	41
488.000	37
489.000	33
490.000	27
491.000	26
492.000	24
493.000	19
494.000	19
495.000	19
496.000	18
497.000	15
498.000	16
499.000	17
500.000	16
501.000	18
502.000	19
503.000	21
504.000	21
505.000	19
506.000	19
507.000	21
508.000	22
509.000	23
510.000	19
511.000	23
512.000	23
513.000	24
514.000	22
515.000	28
516.000	27
517.000	26
518.000	27
519.000	27
520.000	33
521.000	32
522.000	29
523.000	36
524.000	37
525.000	40
526.000	42
527.000	46
528.000	47
529.000	48
530.000	49
531.000	44
532.000	43
533.000	41
534.000	34
535.000	34
536.000	33
537.000	30
538.000	32
539.000	28
540.000	24
541.000	24
542.000	24
543.000	22
544.000	23
545.000	21
546.000	22
547.000	23
548.000	21
549.000	24
550.000	26
551.000	24
552.000	22
553.000	26
554.000	26
555.000	24
556.000	26
557.000	27
558.000	29
559.000	32
560.000	33
561.000	31
562.000	32
563.000	37
564.000	43
565.000	47
566.000	50
567.000	64
568.000	78
569.000	88
570.000	95
571.000	113
572.000	123
573.000	139
574.000	141
575.000	154
576.000	158
577.000	157
578.000	155
579.000	144
580.000	137
581.000	124
582.000	101
583.000	94
584.000	77
585.000	70
586.000	57
587.000	53
588.000	46
589.000	36
590.000	38
591.000	35
592.000	32
593.000	32
594.000	34
595.000	31
596.000	33
597.000	32
598.000	36
599.000	35
600.000	39
601.000	38
602.000	44
603.000	47
604.000	50
605.000	58
606.000	70
607.000	85
608.000	115
609.000	147
610.000	209
611.000	302
612.000	414
613.000	597
614.000	825
615.000	1097
616.000	1461
617.000	1879
618.000	2360
619.000	2886
620.000	3452
621.000	3932
622.000	4400
623.000	4811
624.000	5057
625.000	5178
626.000	5158
627.000	4989
628.000	4644
629.000	4239
630.000	3743
631.000	3205
632.000	2680
633.000	2161
634.000	1704
635.000	1319
636.000	992
637.000	724
638.000	524
639.000	374
640.000	269
641.000	200
642.000	149
643.000	116
644.000	89
645.000	77
646.000	67
647.000	67
648.000	61
649.000	57
650.000	56
651.000	57
652.000	59
653.000	52
654.000	59
655.000	59
656.000	60
657.000	56
658.000	59
659.000	58
660.000	60
661.000	60
662.000	62
663.000	64
664.000	63
665.000	64
666.000	66
667.000	69
668.000	76
669.000	81
670.000	89
671.000	94
672.000	101
673.000	106
674.000	121
675.000	142
676.000	161
677.000	193
678.000	237
679.000	280
680.000	346
681.000	412
682.000	488
683.000	556
684.000	633
685.000	705
686.000	794
687.000	820
688.000	855
689.000	875
690.000	868
691.000	844
692.000	793
693.000	729
694.000	658
695.000	581
696.000	496
697.000	412
698.000	336
699.000	278
700.000	231
701.000	195
702.000	149
703.000	120
704.000	104
705.000	89
706.000	78
707.000	70
708.000	64
709.000	61
710.000	61
711.000	62
712.000	58
713.000	62
714.000	62
715.000	65
716.000	68
717.000	67
718.000	70
719.000	72
720.000	78
721.000	76
722.000	86
723.000	88
724.000	97
725.000	89
726.000	92
727.000	87
728.000	92
729.000	92
730.000	95
731.000	90
732.000	90
733.000	88
734.000	89
735.000	81
736.000	82
737.000	80
738.000	76
739.000	78
740.000	70
741.000	70
742.000	75
743.000	71
744.000	70
745.000	65
746.000	68
747.000	72
748.000	70
749.000	73
750.000	73
751.000	75
752.000	70
753.000	71
754.000	73
755.000	72
756.000	73
757.000	73
758.000	62
759.000	68
760.000	72
761.000	72
762.000	70
763.000	73
764.000	74
765.000	71
766.000	80
767.000	70
768.000	79
769.000	79
770.000	79
771.000	77
772.000	84
773.000	82
774.000	89
775.000	91
776.000	102
777.000	100
778.000	103
779.000	105
780.000	106
781.000	114
782.000	117
783.000	121
784.000	129
785.000	134
786.000	138
787.000	133
788.000	139
789.000	139
790.000	140
791.000	136
792.000	144
793.000	146
794.000	144
795.000	142
796.000	142
797.000	150
798.000	142
799.000	146
800.000	146
801.000	149
802.000	149
803.000	149
804.000	152
805.000	158
806.000	160
807.000	173
808.000	180
809.000	190
810.000	187
811.000	202
812.000	220
813.000	232
814.000	248
815.000	261
816.000	265
817.000	283
818.000	286
819.000	299
820.000	292
821.000	281
822.000	277
823.000	277
824.000	255
825.000	231
826.000	223
827.000	208
828.000	191
829.000	172
830.000	169
831.000	154
832.000	147
833.000	131
834.000	134
835.000	127
836.000	128
837.000	130
838.000	131
839.000	127
840.000	132
841.000	132
842.000	130
843.000	138
844.000	138
845.000	132
846.000	127
847.000	135
848.000	128
849.000	123
850.000	128
851.000	127
852.000	120
853.000	124
854.000	118
855.000	121
856.000	119
857.000	116
858.000	119
859.000	117
860.000	120
861.000	119
862.000	118
863.000	118
864.000	115
865.000	122
866.000	114
867.000	117
868.000	115
869.000	120
870.000	121
871.000	121
872.000	118
873.000	123
874.000	118
875.000	114
876.000	116
877.000	117
878.000	119
879.000	122
880.000	118
881.000	120
882.000	117
883.000	117
884.000	115
885.000	117
886.000	118
887.000	123
888.000	122
889.000	121
890.000	122
891.000	123
892.000	130
893.000	135
894.000	131
895.000	136
896.000	137
897.000	142
898.000	136
899.000	141
900.000	150
901.000	148
902.000	152
903.000	155
904.000	150
905.000	160
906.000	161
907.000	159
908.000	159
909.000	163
910.000	161
911.000	166
912.000	174
913.000	167
914.000	173
915.000	169
916.000	179
917.000	173
918.000	184
919.000	182
920.000	173
921.000	179
922.000	185
923.000	184
924.000	194
925.000	187
926.000	189
927.000	186
928.000	198
929.000	192
930.000	200
931.000	201
932.000	214
933.000	204
934.000	214
935.000	226
936.000	224
937.000	233
938.000	249
939.000	259
940.000	245
941.000	259
942.000	263
943.000	263
944.000	255
945.000	253
946.000	256
947.000	244
948.000	254
949.000	237
950.000	227
951.000	229
952.000	217
953.000	217
954.000	201
955.000	195
956.000	201
957.000	190
958.000	187
959.000	184
960.000	176
961.000	183
962.000	177
963.000	177
964.000	178
965.000	188
966.000	181
967.000	189
968.000	186
969.000	186
970.000	180
971.000	184
972.000	186
973.000	182
974.000	188
975.000	180
976.000	178
977.000	183
978.000	171
979.000	173
980.000	169
981.000	168
982.000	161
983.000	160
984.000	161
985.000	158
986.000	154
987.000	149
988.000	152
989.000	146
990.000	145
991.000	138
992.000	138
993.000	142
994.000	145
995.000	141
996.000	139
997.000	135
998.000	136
999.000	134
1000.000	139
1001.000	136
1002.000	137
1003.000	139
1004.000	137
1005.000	134
1006.000	133
1007.000	131
1008.000	143
1009.000	134
1010.000	138
1011.000	132
1012.000	137
1013.000	138
1014.000	135
1015.000	136
1016.000	145
1017.000	135
1018.000	138
1019.000	149
1020.000	144
1021.000	140
1022.000	140
1023.000	147
1024.000	139
1025.000	146
1026.000	147
1027.000	154
1028.000	142
1029.000	145
1030.000	152
1031.000	147
1032.000	145
1033.000	148
1034.000	151
1035.000	141
1036.000	156
1037.000	153
1038.000	148
1039.000	147
1040.000	153
1041.000	145
1042.000	153
1043.000	157
1044.000	156
1045.000	155
1046.000	164
1047.000	149
1048.000	150
1049.000	154
1050.000	152
1051.000	154
1052.000	151
1053.000	152
1054.000	162
1055.000	158
1056.000	158
1057.000	154
1058.000	164
1059.000	166
1060.000	163
1061.000	155
1062.000	168
1063.000	163
1064.000	160
1065.000	159
1066.000	162
1067.000	171
1068.000	164
1069.000	165
1070.000	160
1071.000	168
1072.000	164
1073.000	165
1074.000	164
1075.000	169
1076.000	166
1077.000	168
1078.000	162
1079.000	163
1080.000	165
1081.000	164
1082.000	161
1083.000	159
1084.000	163
1085.000	162
1086.000	156
1087.000	160
1088.000	166
1089.000	170
1090.000	161
1091.000	170
1092.000	168
1093.000	168
1094.000	166
1095.000	164
1096.000	170
1097.000	177
1098.000	173
1099.000	180
1100.000	174
1101.000	179
1102.000	175
1103.000	168
1104.000	173
1105.000	178
1106.000	171
1107.000	170
1108.000	170
1109.000	160
1110.000	164
1111.000	163
1112.000	171
1113.000	164
1114.000	157
1115.000	164
1116.000	166
1117.000	161
1118.000	164
1119.000	167
1120.000	155
1121.000	160
1122.000	162
1123.000	159
1124.000	152
1125.000	162
1126.000	160
1127.000	159
1128.000	164
1129.000	161
1130.000	166
1131.000	164
1132.000	175
1133.000	160
1134.000	168
1135.000	173
1136.000	174
1137.000	158
1138.000	169
1139.000	168
1140.000	164
1141.000	169
1142.000	165
1143.000	172
1144.000	163
1145.000	169
1146.000	167
1147.000	175
1148.000	172
1149.000	171
1150.000	184
1151.000	180
1152.000	178
1153.000	183
1154.000	181
1155.000	187
1156.000	192
1157.000	189
1158.000	190
1159.000	184
1160.000	192
1161.000	197
1162.000	192
1163.000	196
1164.000	189
1165.000	196
1166.000	184
1167.000	190
1168.000	180
1169.000	187
1170.000	182
1171.000	182
1172.000	177
1173.000	173
1174.000	175
1175.000	174
1176.000	164
1177.000	169
1178.000	162
1179.000	163
1180.000	165
1181.000	168
1182.000	160
1183.000	162
1184.000	168
1185.000	161
1186.000	158
1187.000	155
1188.000	168
1189.000	161
1190.000	161
1191.000	166
1192.000	164
1193.000	162
1194.000	159
1195.000	164
1196.000	162
1197.000	166
1198.000	171
1199.000	165
1200.000	167
1201.000	169
1202.000	160
1203.000	161
1204.000	163
1205.000	163
1206.000	159
1207.000	169
1208.000	169
1209.000	168
1210.000	169
1211.000	170
1212.000	165
1213.000	170
1214.000	168
1215.000	169
1216.000	176
1217.000	170
1218.000	170
1219.000	171
1220.000	164
1221.000	170
1222.000	165
1223.000	167
1224.000	170
1225.000	165
1226.000	171
1227.000	175
1228.000	171
1229.000	169
1230.000	172
1231.000	175
1232.000	180
1233.000	165
1234.000	176
1235.000	173
1236.000	174
1237.000	181
1238.000	179
1239.000	180
1240.000	172
1241.000	167
1242.000	170
1243.000	176
1244.000	165
1245.000	172
1246.000	172
1247.000	173
1248.000	175
1249.000	170
1250.000	171
1251.000	174
1252.000	178
1253.000	169
1254.000	176
1255.000	165
1256.000	172
1257.000	172
1258.000	174
1259.000	171
1260.000	165
1261.000	172
1262.000	175
1263.000	177
1264.000	169
1265.000	177
1266.000	177
1267.000	178
1268.000	171
1269.000	166
1270.000	178
1271.000	174
1272.000	171
1273.000	169
1274.000	172
1275.000	166
1276.000	169
1277.000	172
1278.000	169
1279.000	173
1280.000	178
1281.000	168
1282.000	172
1283.000	173
1284.000	176
1285.000	175
1286.000	173
1287.000	169
1288.000	174
1289.000	186
1290.000	182
1291.000	183
1292.000	183
1293.000	189
1294.000	189
1295.000	183
1296.000	190
1297.000	189
1298.000	187
1299.000	198
1300.000	191
1301.000	203
1302.000	196
1303.000	192
1304.000	191
1305.000	197
1306.000	199
1307.000	196
1308.000	195
1309.000	203
1310.000	191
1311.000	184
1312.000	197
1313.000	196
1314.000	183
1315.000	189
1316.000	189
1317.000	188
1318.000	185
1319.000	190
1320.000	186
1321.000	187
1322.000	176
1323.000	177
1324.000	176
1325.000	180
1326.000	171
1327.000	178
1328.000	181
1329.000	184
1330.000	169
1331.000	181
1332.000	180
1333.000	177
1334.000	177
1335.000	182
1336.000	174
1337.000	172
1338.000	179
1339.000	177
1340.000	180
1341.000	185
1342.000	181
1343.000	176
1344.000	182
1345.000	181
1346.000	180
1347.000	184
1348.000	180
1349.000	180
1350.000	179
1351.000	175
1352.000	181
1353.000	180
1354.000	196
1355.000	198
1356.000	202
1357.000	213
1358.000	223
1359.000	225
1360.000	231
1361.000	254
1362.000	264
1363.000	297
1364.000	317
1365.000	350
1366.000	376
1367.000	427
1368.000	461
1369.000	516
1370.000	533
1371.000	583
1372.000	629
1373.000	676
1374.000	715
1375.000	740
1376.000	785
1377.000	806
1378.000	828
1379.000	846
1380.000	843
1381.000	827
1382.000	817
1383.000	800
1384.000	769
1385.000	741
1386.000	688
1387.000	638
1388.000	600
1389.000	558
1390.000	492
1391.000	462
1392.000	419
1393.000	387
1394.000	351
1395.000	319
1396.000	285
1397.000	268
1398.000	248
1399.000	235
1400.000	216
1401.000	206
1402.000	202
1403.000	198
1404.000	187
1405.000	187
1406.000	180
1407.000	181
1408.000	182
1409.000	172
1410.000	178
1411.000	175
1412.000	181
1413.000	170
1414.000	184
1415.000	178
1416.000	171
1417.000	182
1418.000	175
1419.000	176
1420.000	174
1421.000	169
1422.000	170
1423.000	176
1424.000	170
1425.000	175
1426.000	174
1427.000	175
1428.000	181
1429.000	176
1430.000	173
1431.000	181
1432.000	175
1433.000	179
1434.000	172
1435.000	171
1436.000	176
1437.000	179
1438.000	177
1439.000	174
1440.000	183
1441.000	179
1442.000	174
1443.000	180
1444.000	181
1445.000	181
1446.000	180
1447.000	192
1448.000	186
1449.000	190
1450.000	193
1451.000	192
1452.000	193
1453.000	192
1454.000	188
1455.000	189
1456.000	201
1457.000	187
1458.000	185
1459.000	193
1460.000	191
1461.000	193
1462.000	189
1463.000	186
1464.000	186
1465.000	182
1466.000	184
1467.000	190
1468.000	182
1469.000	188
1470.000	178
1471.000	181
1472.000	178
1473.000	184
1474.000	182
1475.000	184
1476.000	188
1477.000	181
1478.000	182
1479.000	185
1480.000	178
1481.000	182
1482.000	185
1483.000	184
1484.000	187
1485.000	183
1486.000	177
1487.000	189
1488.000	176
1489.000	175
1490.000	180
1491.000	180
1492.000	191
1493.000	178
1494.000	186
1495.000	183
1496.000	187
1497.000	184
1498.000	178
1499.000	181
1500.000	186
1501.000	182
1502.000	186
1503.000	179
1504.000	192
1505.000	191
1506.000	190
1507.000	188
1508.000	186
1509.000	187
1510.000	186
1511.000	179
1512.000	193
1513.000	188
1514.000	199
1515.000	193
1516.000	201
1517.000	186
1518.000	193
1519.000	201
1520.000	200
1521.000	201
1522.000	202
1523.000	213
1524.000	222
1525.000	217
1526.000	220
1527.000	225
1528.000	227
1529.000	240
1530.000	235
1531.000	254
1532.000	269
1533.000	275
1534.000	271
1535.000	293
1536.000	294
1537.000	302
1538.000	313
1539.000	309
1540.000	315
1541.000	326
1542.000	320
1543.000	337
1544.000	341
1545.000	331
1546.000	326
1547.000	318
1548.000	326
1549.000	317
1550.000	301
1551.000	312
1552.000	299
1553.000	294
1554.000	295
1555.000	295
1556.000	281
1557.000	275
1558.000	283
1559.000	281
1560.000	280
1561.000	275
1562.000	273
1563.000	280
1564.000	278
1565.000	296
1566.000	293
1567.000	292
1568.000	299
1569.000	303
1570.000	308
1571.000	314
1572.000	313
1573.000	327
1574.000	336
1575.000	336
1576.000	351
1577.000	345
1578.000	366
1579.000	363
1580.000	383
1581.000	391
1582.000	394
1583.000	406
1584.000	416
1585.000	438
1586.000	455
1587.000	459
1588.000	481
1589.000	486
1590.000	495
1591.000	525
1592.000	526
1593.000	533
1594.000	537
1595.000	556
1596.000	578
1597.000	575
1598.000	577
1599.000	588
1600.000	602
1601.000	610
1602.000	614
1603.000	632
1604.000	640
1605.000	631
1606.000	628
1607.000	624
1608.000	624
1609.000	630
1610.000	618
1611.000	633
1612.000	621
1613.000	625
1614.000	612
1615.000	626
1616.000	605
1617.000	613
1618.000	595
1619.000	577
1620.000	576
1621.000	562
1622.000	552
1623.000	548
1624.000	539
1625.000	514
1626.000	511
1627.000	498
1628.000	483
1629.000	474
1630.000	459
1631.000	437
1632.000	434
1633.000	427
1634.000	410
1635.000	396
1636.000	383
1637.000	380
1638.000	365
1639.000	344
1640.000	347
1641.000	333
1642.000	316
1643.000	319
1644.000	303
1645.000	291
1646.000	289
1647.000	273
1648.000	272
1649.000	271
1650.000	258
1651.000	259
1652.000	247
1653.000	245
1654.000	226
1655.000	230
1656.000	227
1657.000	217
1658.000	224
1659.000	210
1660.000	207
1661.000	201
1662.000	203
1663.000	208
1664.000	189
1665.000	195
1666.000	193
1667.000	191
1668.000	192
1669.000	196
1670.000	185
1671.000	189
1672.000	183
1673.000	193
1674.000	193
1675.000	197
1676.000	194
1677.000	197
1678.000	207
1679.000	210
1680.000	222
1681.000	229
1682.000	240
1683.000	257
1684.000	260
1685.000	282
1686.000	303
1687.000	321
1688.000	345
1689.000	363
1690.000	383
1691.000	408
1692.000	429
1693.000	450
1694.000	466
1695.000	483
1696.000	496
1697.000	524
1698.000	537
1699.000	546
1700.000	549
1701.000	550
1702.000	549
1703.000	541
1704.000	528
1705.000	531
1706.000	514
1707.000	500
1708.000	485
1709.000	459
1710.000	428
1711.000	408
1712.000	392
1713.000	372
1714.000	336
1715.000	329
1716.000	294
1717.000	265
1718.000	246
1719.000	238
1720.000	226
1721.000	207
1722.000	194
1723.000	187
1724.000	173
1725.000	171
1726.000	165
1727.000	159
1728.000	157
1729.000	153
1730.000	153
1731.000	149
1732.000	147
1733.000	152
1734.000	148
1735.000	149
1736.000	150
1737.000	142
1738.000	142
1739.000	144
1740.000	146
1741.000	149
1742.000	148
1743.000	149
1744.000	142
1745.000	146
1746.000	141
1747.000	144
1748.000	150
1749.000	146
1750.000	148
1751.000	141
1752.000	153
1753.000	153
1754.000	147
1755.000	154
1756.000	148
1757.000	153
1758.000	152
1759.000	152
1760.000	155
1761.000	165
1762.000	158
1763.000	162
1764.000	159
1765.000	167
1766.000	169
1767.000	170
1768.000	167
1769.000	173
1770.000	178
1771.000	182
1772.000	169
1773.000	177
1774.000	194
1775.000	194
1776.000	188
1777.000	185
1778.000	188
1779.000	186
1780.000	192
1781.000	193
1782.000	200
1783.000	197
1784.000	194
1785.000	200
1786.000	201
1787.000	204
1788.000	198
1789.000	204
1790.000	200
1791.000	208
1792.000	202
1793.000	209
1794.000	200
1795.000	200
1796.000	205
1797.000	204
1798.000	203
1799.000	203
1800.000	195
1801.000	194
1802.000	194
1803.000	203
1804.000	203
1805.000	200
1806.000	193
1807.000	193
1808.000	185
1809.000	186
1810.000	183
1811.000	184
1812.000	176
1813.000	181
1814.000	169
1815.000	172
1816.000	175
1817.000	171
1818.000	160
1819.000	163
1820.000	160
1821.000	159
1822.000	156
1823.000	160
1824.000	154
1825.000	156
1826.000	142
1827.000	149
1828.000	140
1829.000	134
1830.000	140
1831.000	130
1832.000	128
1833.000	130
1834.000	132
1835.000	129
1836.000	126
1837.000	119
1838.000	122
1839.000	122
1840.000	120
1841.000	108
1842.000	112
1843.000	111
1844.000	116
1845.000	108
1846.000	101
1847.000	107
1848.000	108
1849.000	100
1850.000	101
1851.000	101
1852.000	103
1853.000	100
1854.000	95
1855.000	93
1856.000	100
1857.000	96
1858.000	97
1859.000	94
1860.000	95
1861.000	88
1862.000	94
1863.000	89
1864.000	81
1865.000	87
1866.000	86
1867.000	87
1868.000	83
1869.000	88
1870.000	82
1871.000	83
1872.000	84
1873.000	87
1874.000	82
1875.000	80
1876.000	79
1877.000	78
1878.000	79
1879.000	76
1880.000	75
1881.000	76
1882.000	81
1883.000	76
1884.000	75
1885.000	76
1886.000	75
1887.000	77
1888.000	72
1889.000	76
1890.000	79
1891.000	82
1892.000	82
1893.000	85
1894.000	87
1895.000	84
1896.000	96
1897.000	90
1898.000	97
1899.000	96
1900.000	100
1901.000	106
1902.000	106
1903.000	116
1904.000	113
1905.000	116
1906.000	118
1907.000	119
1908.000	121
1909.000	126
1910.000	127
1911.000	125
1912.000	124
1913.000	128
1914.000	120
1915.000	116
1916.000	121
1917.000	114
1918.000	113
1919.000	110
1920.000	107
1921.000	103
1922.000	99
1923.000	93
1924.000	88
1925.000	89
1926.000	84
1927.000	84
1928.000	77
1929.000	79
1930.000	75
1931.000	71
1932.000	71
1933.000	73
1934.000	68
1935.000	77
1936.000	69
1937.000	69
1938.000	71
1939.000	72
1940.000	74
1941.000	66
1942.000	70
1943.000	71
1944.000	65
1945.000	68
1946.000	71
1947.000	69
1948.000	70
1949.000	71
1950.000	70
1951.000	69
1952.000	67
1953.000	61
1954.000	63
1955.000	62
1956.000	60
1957.000	60
1958.000	60
1959.000	60
1960.000	61
1961.000	62
1962.000	59
1963.000	59
1964.000	55
1965.000	54
1966.000	56
1967.000	54
1968.000	56
1969.000	55
1970.000	58
1971.000	55
1972.000	51
1973.000	51
1974.000	56
1975.000	50
1976.000	54
1977.000	51
1978.000	54
1979.000	53
1980.000	51
1981.000	54
1982.000	53
1983.000	50
1984.000	49
1985.000	52
1986.000	51
1987.000	53
1988.000	51
1989.000	55
1990.000	56
1991.000	47
1992.000	52
1993.000	53
1994.000	52
1995.000	48
1996.000	55
1997.000	53
1998.000	53
1999.000	52
2000.000	50
2001.000	52
2002.000	54
2003.000	51
2004.000	48
2005.000	51
2006.000	46
2007.000	49
2008.000	53
2009.000	52
2010.000	50
2011.000	50
2012.000	49
2013.000	48
2014.000	47
2015.000	49
2016.000	49
2017.000	52
2018.000	52
2019.000	51
2020.000	49
2021.000	54
2022.000	52
2023.000	48
2024.000	49
2025.000	50
2026.000	55
2027.000	45
2028.000	54
2029.000	50
2030.000	51
2031.000	47
2032.000	52
2033.000	50
2034.000	45
2035.000	47
2036.000	48
2037.000	51
2038.000	49
2039.000	51
2040.000	49
2041.000	50
2042.000	45
2043.000	50
2044.000	52
2045.000	48
2046.000	48
2047.000	49
2048.000	0
