Date:	23-Sep-20		Time:	11:32 PM		Version no:	0.00		Project name:	55		Sample name:	222		Section name:	section		Position	0.000000	mm	E0	0.000000	keV	E1	1.000000	keV/channel	sample surface	2.000000	cm	Tube anode:	Mo		Tube voltage:	30	kV	Tube current:	30	mA	gain	15		std. database			resultfile	result		matrix element	11		sample thickness	1.000000		air passage	0.560000	cm	comments	not in position		peaking_time	0.300000	m-sec	trigger_threshold	40.000000	V	mca_bin_width	2.000000	no:	number_mca_channels	2048.000000	no:	gap_time	2048.000000	m-sec	trigger_peaking_time	2048.000000	m-sec	GAINDAC	400		HIGHGAIN	400		TAURC	400		RCTAU	400		RCTAUFRAC	400		livetime	13.334824	seconds	runtime	15.000351	seconds	input_count_rate	47769.585089	cps	output_count_rate	42465.604889	cps	triggers	704307	seconds	events_in_run	618783	seconds	channel	content		1.000	0
2.000	0
3.000	0
4.000	0
5.000	0
6.000	0
7.000	0
8.000	0
9.000	0
10.000	0
11.000	0
12.000	0
13.000	0
14.000	0
15.000	0
16.000	0
17.000	0
18.000	0
19.000	0
20.000	0
21.000	0
22.000	0
23.000	0
24.000	0
25.000	0
26.000	0
27.000	0
28.000	0
29.000	0
30.000	0
31.000	0
32.000	1
33.000	0
34.000	0
35.000	0
36.000	0
37.000	0
38.000	0
39.000	1
40.000	0
41.000	0
42.000	0
43.000	0
44.000	1
45.000	0
46.000	1
47.000	0
48.000	1
49.000	1
50.000	1
51.000	2
52.000	3
53.000	4
54.000	4
55.000	4
56.000	8
57.000	9
58.000	13
59.000	19
60.000	24
61.000	27
62.000	31
63.000	30
64.000	31
65.000	30
66.000	29
67.000	28
68.000	27
69.000	27
70.000	28
71.000	25
72.000	26
73.000	24
74.000	26
75.000	24
76.000	25
77.000	23
78.000	27
79.000	21
80.000	26
81.000	25
82.000	27
83.000	28
84.000	25
85.000	28
86.000	25
87.000	24
88.000	26
89.000	24
90.000	25
91.000	22
92.000	22
93.000	22
94.000	22
95.000	21
96.000	19
97.000	21
98.000	20
99.000	21
100.000	23
101.000	23
102.000	20
103.000	24
104.000	22
105.000	17
106.000	21
107.000	20
108.000	19
109.000	20
110.000	19
111.000	21
112.000	17
113.000	19
114.000	21
115.000	19
116.000	21
117.000	18
118.000	20
119.000	19
120.000	19
121.000	21
122.000	17
123.000	18
124.000	18
125.000	17
126.000	17
127.000	17
128.000	16
129.000	16
130.000	15
131.000	16
132.000	16
133.000	17
134.000	15
135.000	17
136.000	16
137.000	17
138.000	16
139.000	16
140.000	20
141.000	19
142.000	22
143.000	23
144.000	22
145.000	26
146.000	24
147.000	23
148.000	23
149.000	20
150.000	20
151.000	18
152.000	17
153.000	17
154.000	17
155.000	13
156.000	15
157.000	14
158.000	14
159.000	15
160.000	14
161.000	13
162.000	13
163.000	16
164.000	16
165.000	17
166.000	19
167.000	24
168.000	30
169.000	29
170.000	32
171.000	32
172.000	31
173.000	34
174.000	28
175.000	29
176.000	26
177.000	24
178.000	26
179.000	33
180.000	35
181.000	41
182.000	49
183.000	64
184.000	88
185.000	116
186.000	152
187.000	196
188.000	238
189.000	289
190.000	310
191.000	313
192.000	307
193.000	276
194.000	237
195.000	185
196.000	143
197.000	99
198.000	74
199.000	50
200.000	34
201.000	28
202.000	20
203.000	22
204.000	18
205.000	16
206.000	17
207.000	17
208.000	19
209.000	21
210.000	20
211.000	20
212.000	18
213.000	21
214.000	23
215.000	26
216.000	30
217.000	31
218.000	41
219.000	46
220.000	48
221.000	59
222.000	57
223.000	67
224.000	60
225.000	55
226.000	53
227.000	44
228.000	40
229.000	34
230.000	28
231.000	22
232.000	22
233.000	18
234.000	16
235.000	16
236.000	15
237.000	15
238.000	15
239.000	15
240.000	16
241.000	16
242.000	15
243.000	16
244.000	17
245.000	18
246.000	21
247.000	25
248.000	33
249.000	44
250.000	60
251.000	80
252.000	104
253.000	125
254.000	152
255.000	175
256.000	189
257.000	199
258.000	188
259.000	174
260.000	150
261.000	127
262.000	102
263.000	80
264.000	65
265.000	49
266.000	33
267.000	27
268.000	27
269.000	26
270.000	27
271.000	31
272.000	29
273.000	34
274.000	34
275.000	37
276.000	37
277.000	37
278.000	36
279.000	35
280.000	38
281.000	34
282.000	37
283.000	43
284.000	49
285.000	58
286.000	65
287.000	72
288.000	80
289.000	87
290.000	88
291.000	87
292.000	83
293.000	70
294.000	57
295.000	57
296.000	48
297.000	36
298.000	34
299.000	30
300.000	26
301.000	25
302.000	29
303.000	24
304.000	28
305.000	29
306.000	31
307.000	32
308.000	36
309.000	35
310.000	37
311.000	37
312.000	42
313.000	43
314.000	47
315.000	51
316.000	53
317.000	68
318.000	76
319.000	87
320.000	105
321.000	111
322.000	124
323.000	135
324.000	141
325.000	135
326.000	135
327.000	128
328.000	113
329.000	94
330.000	76
331.000	67
332.000	55
333.000	44
334.000	38
335.000	36
336.000	38
337.000	35
338.000	41
339.000	47
340.000	55
341.000	65
342.000	77
343.000	92
344.000	124
345.000	168
346.000	256
347.000	381
348.000	605
349.000	937
350.000	1497
351.000	2373
352.000	3625
353.000	5335
354.000	7499
355.000	10341
356.000	13510
357.000	17051
358.000	20289
359.000	23228
360.000	25377
361.000	26352
362.000	26162
363.000	24875
364.000	22576
365.000	19440
366.000	15871
367.000	12573
368.000	9392
369.000	6802
370.000	4632
371.000	3055
372.000	1924
373.000	1196
374.000	748
375.000	462
376.000	310
377.000	229
378.000	211
379.000	224
380.000	279
381.000	358
382.000	481
383.000	663
384.000	892
385.000	1200
386.000	1569
387.000	2005
388.000	2463
389.000	2921
390.000	3303
391.000	3669
392.000	3843
393.000	3930
394.000	3841
395.000	3541
396.000	3158
397.000	2689
398.000	2203
399.000	1703
400.000	1304
401.000	920
402.000	647
403.000	429
404.000	273
405.000	172
406.000	100
407.000	62
408.000	38
409.000	23
410.000	16
411.000	15
412.000	10
413.000	9
414.000	8
415.000	9
416.000	8
417.000	8
418.000	7
419.000	7
420.000	7
421.000	7
422.000	8
423.000	8
424.000	8
425.000	7
426.000	10
427.000	10
428.000	11
429.000	11
430.000	18
431.000	18
432.000	21
433.000	28
434.000	30
435.000	45
436.000	50
437.000	59
438.000	64
439.000	74
440.000	76
441.000	77
442.000	78
443.000	73
444.000	69
445.000	63
446.000	49
447.000	44
448.000	40
449.000	33
450.000	28
451.000	23
452.000	23
453.000	19
454.000	19
455.000	16
456.000	14
457.000	16
458.000	15
459.000	16
460.000	15
461.000	14
462.000	11
463.000	12
464.000	12
465.000	13
466.000	12
467.000	12
468.000	12
469.000	11
470.000	12
471.000	12
472.000	12
473.000	15
474.000	13
475.000	15
476.000	17
477.000	16
478.000	20
479.000	23
480.000	23
481.000	25
482.000	24
483.000	22
484.000	25
485.000	23
486.000	20
487.000	21
488.000	18
489.000	17
490.000	18
491.000	14
492.000	13
493.000	15
494.000	13
495.000	14
496.000	13
497.000	13
498.000	13
499.000	13
500.000	12
501.000	12
502.000	14
503.000	15
504.000	13
505.000	13
506.000	15
507.000	15
508.000	17
509.000	17
510.000	16
511.000	17
512.000	16
513.000	19
514.000	17
515.000	19
516.000	18
517.000	19
518.000	24
519.000	21
520.000	22
521.000	26
522.000	22
523.000	29
524.000	33
525.000	31
526.000	36
527.000	36
528.000	36
529.000	38
530.000	33
531.000	31
532.000	36
533.000	30
534.000	30
535.000	28
536.000	25
537.000	25
538.000	23
539.000	20
540.000	20
541.000	19
542.000	19
543.000	20
544.000	18
545.000	19
546.000	18
547.000	18
548.000	21
549.000	20
550.000	20
551.000	22
552.000	22
553.000	23
554.000	23
555.000	25
556.000	23
557.000	25
558.000	25
559.000	27
560.000	29
561.000	27
562.000	28
563.000	34
564.000	35
565.000	33
566.000	37
567.000	42
568.000	42
569.000	48
570.000	50
571.000	54
572.000	58
573.000	63
574.000	69
575.000	61
576.000	69
577.000	64
578.000	64
579.000	64
580.000	57
581.000	59
582.000	48
583.000	46
584.000	38
585.000	35
586.000	31
587.000	31
588.000	27
589.000	26
590.000	26
591.000	25
592.000	25
593.000	24
594.000	26
595.000	24
596.000	25
597.000	24
598.000	23
599.000	24
600.000	24
601.000	28
602.000	24
603.000	27
604.000	28
605.000	30
606.000	37
607.000	41
608.000	52
609.000	64
610.000	83
611.000	110
612.000	143
613.000	188
614.000	258
615.000	352
616.000	449
617.000	575
618.000	719
619.000	850
620.000	996
621.000	1169
622.000	1316
623.000	1402
624.000	1507
625.000	1531
626.000	1543
627.000	1442
628.000	1377
629.000	1271
630.000	1123
631.000	962
632.000	796
633.000	653
634.000	526
635.000	420
636.000	319
637.000	251
638.000	191
639.000	146
640.000	105
641.000	84
642.000	78
643.000	61
644.000	58
645.000	54
646.000	51
647.000	52
648.000	52
649.000	47
650.000	48
651.000	48
652.000	47
653.000	47
654.000	48
655.000	45
656.000	46
657.000	49
658.000	49
659.000	47
660.000	49
661.000	55
662.000	54
663.000	46
664.000	52
665.000	57
666.000	51
667.000	54
668.000	59
669.000	58
670.000	56
671.000	62
672.000	67
673.000	71
674.000	77
675.000	84
676.000	86
677.000	100
678.000	109
679.000	125
680.000	142
681.000	150
682.000	181
683.000	200
684.000	223
685.000	243
686.000	263
687.000	282
688.000	293
689.000	293
690.000	287
691.000	286
692.000	273
693.000	255
694.000	219
695.000	202
696.000	186
697.000	159
698.000	141
699.000	120
700.000	104
701.000	92
702.000	79
703.000	73
704.000	66
705.000	61
706.000	57
707.000	59
708.000	59
709.000	55
710.000	57
711.000	60
712.000	64
713.000	63
714.000	68
715.000	74
716.000	75
717.000	80
718.000	80
719.000	85
720.000	89
721.000	91
722.000	92
723.000	95
724.000	91
725.000	96
726.000	94
727.000	92
728.000	92
729.000	86
730.000	90
731.000	85
732.000	79
733.000	84
734.000	77
735.000	79
736.000	73
737.000	72
738.000	74
739.000	68
740.000	68
741.000	66
742.000	66
743.000	66
744.000	67
745.000	66
746.000	63
747.000	70
748.000	70
749.000	71
750.000	71
751.000	69
752.000	72
753.000	73
754.000	71
755.000	70
756.000	70
757.000	70
758.000	70
759.000	71
760.000	67
761.000	68
762.000	73
763.000	66
764.000	68
765.000	71
766.000	70
767.000	72
768.000	78
769.000	77
770.000	75
771.000	79
772.000	77
773.000	78
774.000	78
775.000	88
776.000	83
777.000	96
778.000	90
779.000	98
780.000	99
781.000	103
782.000	104
783.000	110
784.000	110
785.000	113
786.000	114
787.000	124
788.000	122
789.000	125
790.000	128
791.000	129
792.000	125
793.000	130
794.000	133
795.000	132
796.000	131
797.000	135
798.000	128
799.000	135
800.000	139
801.000	136
802.000	139
803.000	153
804.000	142
805.000	152
806.000	153
807.000	165
808.000	175
809.000	182
810.000	194
811.000	204
812.000	226
813.000	242
814.000	261
815.000	264
816.000	283
817.000	308
818.000	307
819.000	313
820.000	312
821.000	299
822.000	292
823.000	286
824.000	274
825.000	258
826.000	240
827.000	221
828.000	197
829.000	184
830.000	167
831.000	155
832.000	150
833.000	135
834.000	131
835.000	126
836.000	123
837.000	125
838.000	120
839.000	113
840.000	125
841.000	117
842.000	122
843.000	123
844.000	120
845.000	117
846.000	117
847.000	112
848.000	116
849.000	120
850.000	119
851.000	114
852.000	120
853.000	115
854.000	122
855.000	119
856.000	114
857.000	118
858.000	110
859.000	115
860.000	115
861.000	114
862.000	110
863.000	118
864.000	114
865.000	116
866.000	116
867.000	116
868.000	115
869.000	114
870.000	115
871.000	116
872.000	108
873.000	116
874.000	113
875.000	110
876.000	114
877.000	109
878.000	113
879.000	108
880.000	111
881.000	115
882.000	116
883.000	110
884.000	113
885.000	109
886.000	114
887.000	113
888.000	111
889.000	114
890.000	113
891.000	119
892.000	113
893.000	121
894.000	129
895.000	125
896.000	126
897.000	127
898.000	128
899.000	139
900.000	134
901.000	138
902.000	143
903.000	147
904.000	143
905.000	145
906.000	149
907.000	150
908.000	151
909.000	156
910.000	154
911.000	160
912.000	157
913.000	162
914.000	160
915.000	159
916.000	171
917.000	173
918.000	172
919.000	172
920.000	175
921.000	172
922.000	175
923.000	170
924.000	181
925.000	183
926.000	188
927.000	190
928.000	181
929.000	190
930.000	191
931.000	194
932.000	198
933.000	212
934.000	206
935.000	219
936.000	227
937.000	226
938.000	240
939.000	248
940.000	258
941.000	252
942.000	255
943.000	245
944.000	253
945.000	265
946.000	255
947.000	253
948.000	243
949.000	234
950.000	229
951.000	215
952.000	221
953.000	206
954.000	210
955.000	190
956.000	186
957.000	179
958.000	175
959.000	185
960.000	179
961.000	170
962.000	173
963.000	179
964.000	177
965.000	175
966.000	183
967.000	179
968.000	179
969.000	186
970.000	183
971.000	187
972.000	178
973.000	191
974.000	176
975.000	182
976.000	182
977.000	174
978.000	167
979.000	165
980.000	161
981.000	158
982.000	159
983.000	152
984.000	147
985.000	151
986.000	143
987.000	148
988.000	145
989.000	142
990.000	138
991.000	135
992.000	138
993.000	134
994.000	133
995.000	135
996.000	135
997.000	132
998.000	125
999.000	129
1000.000	138
1001.000	134
1002.000	133
1003.000	133
1004.000	132
1005.000	136
1006.000	127
1007.000	130
1008.000	128
1009.000	129
1010.000	131
1011.000	134
1012.000	136
1013.000	135
1014.000	126
1015.000	132
1016.000	128
1017.000	135
1018.000	124
1019.000	136
1020.000	136
1021.000	137
1022.000	130
1023.000	139
1024.000	136
1025.000	140
1026.000	139
1027.000	133
1028.000	135
1029.000	141
1030.000	144
1031.000	148
1032.000	142
1033.000	137
1034.000	141
1035.000	135
1036.000	142
1037.000	136
1038.000	142
1039.000	137
1040.000	140
1041.000	142
1042.000	143
1043.000	146
1044.000	143
1045.000	143
1046.000	144
1047.000	151
1048.000	154
1049.000	151
1050.000	152
1051.000	147
1052.000	148
1053.000	150
1054.000	155
1055.000	156
1056.000	151
1057.000	152
1058.000	153
1059.000	156
1060.000	158
1061.000	154
1062.000	151
1063.000	157
1064.000	155
1065.000	161
1066.000	159
1067.000	158
1068.000	155
1069.000	157
1070.000	155
1071.000	155
1072.000	150
1073.000	152
1074.000	155
1075.000	156
1076.000	158
1077.000	156
1078.000	151
1079.000	154
1080.000	154
1081.000	145
1082.000	148
1083.000	153
1084.000	156
1085.000	153
1086.000	152
1087.000	155
1088.000	156
1089.000	163
1090.000	163
1091.000	164
1092.000	166
1093.000	163
1094.000	168
1095.000	166
1096.000	163
1097.000	167
1098.000	162
1099.000	171
1100.000	171
1101.000	174
1102.000	169
1103.000	174
1104.000	166
1105.000	164
1106.000	169
1107.000	170
1108.000	173
1109.000	167
1110.000	157
1111.000	163
1112.000	160
1113.000	158
1114.000	170
1115.000	158
1116.000	156
1117.000	156
1118.000	151
1119.000	163
1120.000	157
1121.000	157
1122.000	156
1123.000	153
1124.000	161
1125.000	160
1126.000	158
1127.000	158
1128.000	159
1129.000	152
1130.000	163
1131.000	159
1132.000	157
1133.000	156
1134.000	157
1135.000	163
1136.000	158
1137.000	163
1138.000	158
1139.000	158
1140.000	158
1141.000	160
1142.000	167
1143.000	163
1144.000	156
1145.000	166
1146.000	165
1147.000	165
1148.000	164
1149.000	169
1150.000	161
1151.000	166
1152.000	165
1153.000	170
1154.000	175
1155.000	173
1156.000	184
1157.000	177
1158.000	178
1159.000	183
1160.000	177
1161.000	181
1162.000	184
1163.000	175
1164.000	183
1165.000	181
1166.000	177
1167.000	171
1168.000	175
1169.000	168
1170.000	177
1171.000	166
1172.000	164
1173.000	170
1174.000	170
1175.000	163
1176.000	168
1177.000	164
1178.000	160
1179.000	157
1180.000	152
1181.000	158
1182.000	159
1183.000	157
1184.000	163
1185.000	163
1186.000	154
1187.000	156
1188.000	158
1189.000	158
1190.000	159
1191.000	159
1192.000	160
1193.000	156
1194.000	165
1195.000	165
1196.000	160
1197.000	152
1198.000	157
1199.000	159
1200.000	162
1201.000	161
1202.000	161
1203.000	156
1204.000	161
1205.000	162
1206.000	160
1207.000	167
1208.000	159
1209.000	168
1210.000	163
1211.000	158
1212.000	160
1213.000	160
1214.000	163
1215.000	164
1216.000	163
1217.000	162
1218.000	159
1219.000	166
1220.000	159
1221.000	160
1222.000	159
1223.000	164
1224.000	164
1225.000	169
1226.000	163
1227.000	169
1228.000	164
1229.000	173
1230.000	168
1231.000	170
1232.000	166
1233.000	162
1234.000	174
1235.000	167
1236.000	166
1237.000	163
1238.000	162
1239.000	170
1240.000	173
1241.000	163
1242.000	164
1243.000	167
1244.000	160
1245.000	163
1246.000	166
1247.000	163
1248.000	160
1249.000	165
1250.000	167
1251.000	161
1252.000	165
1253.000	169
1254.000	162
1255.000	164
1256.000	168
1257.000	163
1258.000	163
1259.000	165
1260.000	165
1261.000	162
1262.000	164
1263.000	162
1264.000	163
1265.000	158
1266.000	157
1267.000	155
1268.000	165
1269.000	163
1270.000	157
1271.000	157
1272.000	165
1273.000	159
1274.000	166
1275.000	157
1276.000	166
1277.000	166
1278.000	164
1279.000	163
1280.000	158
1281.000	168
1282.000	173
1283.000	160
1284.000	163
1285.000	165
1286.000	166
1287.000	160
1288.000	154
1289.000	166
1290.000	173
1291.000	167
1292.000	172
1293.000	171
1294.000	175
1295.000	169
1296.000	167
1297.000	177
1298.000	174
1299.000	164
1300.000	169
1301.000	171
1302.000	174
1303.000	173
1304.000	176
1305.000	172
1306.000	176
1307.000	175
1308.000	172
1309.000	172
1310.000	166
1311.000	168
1312.000	168
1313.000	173
1314.000	174
1315.000	172
1316.000	168
1317.000	171
1318.000	163
1319.000	174
1320.000	174
1321.000	164
1322.000	166
1323.000	169
1324.000	166
1325.000	168
1326.000	173
1327.000	168
1328.000	165
1329.000	168
1330.000	166
1331.000	168
1332.000	176
1333.000	167
1334.000	171
1335.000	170
1336.000	172
1337.000	170
1338.000	171
1339.000	164
1340.000	176
1341.000	170
1342.000	181
1343.000	169
1344.000	176
1345.000	173
1346.000	171
1347.000	174
1348.000	171
1349.000	183
1350.000	175
1351.000	183
1352.000	175
1353.000	180
1354.000	189
1355.000	189
1356.000	196
1357.000	204
1358.000	224
1359.000	231
1360.000	243
1361.000	273
1362.000	300
1363.000	332
1364.000	365
1365.000	395
1366.000	447
1367.000	489
1368.000	551
1369.000	590
1370.000	657
1371.000	710
1372.000	779
1373.000	835
1374.000	891
1375.000	933
1376.000	972
1377.000	1001
1378.000	1034
1379.000	1026
1380.000	1053
1381.000	1040
1382.000	1022
1383.000	983
1384.000	942
1385.000	914
1386.000	848
1387.000	797
1388.000	741
1389.000	675
1390.000	612
1391.000	559
1392.000	485
1393.000	447
1394.000	392
1395.000	348
1396.000	327
1397.000	289
1398.000	266
1399.000	237
1400.000	222
1401.000	202
1402.000	199
1403.000	190
1404.000	177
1405.000	180
1406.000	178
1407.000	171
1408.000	165
1409.000	163
1410.000	174
1411.000	165
1412.000	160
1413.000	169
1414.000	171
1415.000	170
1416.000	163
1417.000	165
1418.000	169
1419.000	164
1420.000	162
1421.000	166
1422.000	163
1423.000	163
1424.000	164
1425.000	164
1426.000	161
1427.000	160
1428.000	163
1429.000	164
1430.000	167
1431.000	166
1432.000	173
1433.000	163
1434.000	168
1435.000	164
1436.000	169
1437.000	166
1438.000	175
1439.000	169
1440.000	160
1441.000	165
1442.000	172
1443.000	168
1444.000	166
1445.000	169
1446.000	169
1447.000	160
1448.000	180
1449.000	172
1450.000	177
1451.000	173
1452.000	176
1453.000	169
1454.000	169
1455.000	186
1456.000	173
1457.000	169
1458.000	174
1459.000	180
1460.000	175
1461.000	175
1462.000	175
1463.000	180
1464.000	175
1465.000	175
1466.000	171
1467.000	171
1468.000	175
1469.000	175
1470.000	172
1471.000	174
1472.000	171
1473.000	177
1474.000	169
1475.000	162
1476.000	170
1477.000	180
1478.000	170
1479.000	178
1480.000	170
1481.000	176
1482.000	173
1483.000	174
1484.000	170
1485.000	181
1486.000	174
1487.000	173
1488.000	176
1489.000	171
1490.000	177
1491.000	179
1492.000	176
1493.000	167
1494.000	172
1495.000	175
1496.000	178
1497.000	178
1498.000	174
1499.000	173
1500.000	179
1501.000	179
1502.000	168
1503.000	172
1504.000	177
1505.000	170
1506.000	179
1507.000	169
1508.000	177
1509.000	178
1510.000	180
1511.000	183
1512.000	182
1513.000	187
1514.000	174
1515.000	174
1516.000	181
1517.000	182
1518.000	187
1519.000	189
1520.000	188
1521.000	194
1522.000	191
1523.000	195
1524.000	202
1525.000	199
1526.000	211
1527.000	214
1528.000	220
1529.000	227
1530.000	236
1531.000	240
1532.000	245
1533.000	257
1534.000	267
1535.000	274
1536.000	290
1537.000	286
1538.000	304
1539.000	331
1540.000	330
1541.000	331
1542.000	349
1543.000	337
1544.000	343
1545.000	351
1546.000	346
1547.000	333
1548.000	346
1549.000	333
1550.000	328
1551.000	322
1552.000	306
1553.000	294
1554.000	306
1555.000	291
1556.000	282
1557.000	271
1558.000	271
1559.000	279
1560.000	270
1561.000	264
1562.000	262
1563.000	272
1564.000	279
1565.000	269
1566.000	286
1567.000	281
1568.000	289
1569.000	281
1570.000	293
1571.000	303
1572.000	307
1573.000	307
1574.000	320
1575.000	320
1576.000	337
1577.000	347
1578.000	343
1579.000	356
1580.000	361
1581.000	368
1582.000	372
1583.000	387
1584.000	398
1585.000	403
1586.000	426
1587.000	428
1588.000	436
1589.000	459
1590.000	460
1591.000	469
1592.000	484
1593.000	489
1594.000	512
1595.000	517
1596.000	531
1597.000	544
1598.000	532
1599.000	557
1600.000	553
1601.000	563
1602.000	564
1603.000	581
1604.000	574
1605.000	580
1606.000	583
1607.000	588
1608.000	574
1609.000	575
1610.000	577
1611.000	577
1612.000	572
1613.000	563
1614.000	563
1615.000	552
1616.000	542
1617.000	545
1618.000	542
1619.000	522
1620.000	528
1621.000	511
1622.000	502
1623.000	499
1624.000	478
1625.000	478
1626.000	470
1627.000	453
1628.000	434
1629.000	432
1630.000	416
1631.000	412
1632.000	392
1633.000	389
1634.000	375
1635.000	370
1636.000	362
1637.000	336
1638.000	328
1639.000	322
1640.000	302
1641.000	309
1642.000	300
1643.000	291
1644.000	263
1645.000	273
1646.000	266
1647.000	267
1648.000	251
1649.000	246
1650.000	240
1651.000	228
1652.000	224
1653.000	222
1654.000	220
1655.000	214
1656.000	209
1657.000	206
1658.000	203
1659.000	196
1660.000	194
1661.000	187
1662.000	189
1663.000	189
1664.000	177
1665.000	179
1666.000	178
1667.000	175
1668.000	173
1669.000	174
1670.000	176
1671.000	173
1672.000	172
1673.000	178
1674.000	176
1675.000	176
1676.000	175
1677.000	182
1678.000	188
1679.000	195
1680.000	203
1681.000	215
1682.000	228
1683.000	241
1684.000	256
1685.000	268
1686.000	288
1687.000	310
1688.000	323
1689.000	353
1690.000	373
1691.000	391
1692.000	417
1693.000	441
1694.000	465
1695.000	479
1696.000	503
1697.000	503
1698.000	513
1699.000	526
1700.000	535
1701.000	529
1702.000	538
1703.000	534
1704.000	533
1705.000	522
1706.000	502
1707.000	497
1708.000	468
1709.000	440
1710.000	429
1711.000	402
1712.000	390
1713.000	353
1714.000	331
1715.000	301
1716.000	283
1717.000	261
1718.000	238
1719.000	226
1720.000	205
1721.000	191
1722.000	176
1723.000	166
1724.000	169
1725.000	154
1726.000	147
1727.000	154
1728.000	151
1729.000	145
1730.000	139
1731.000	147
1732.000	140
1733.000	136
1734.000	135
1735.000	127
1736.000	136
1737.000	136
1738.000	135
1739.000	141
1740.000	137
1741.000	139
1742.000	128
1743.000	133
1744.000	130
1745.000	139
1746.000	141
1747.000	136
1748.000	134
1749.000	140
1750.000	138
1751.000	140
1752.000	144
1753.000	142
1754.000	138
1755.000	146
1756.000	144
1757.000	142
1758.000	142
1759.000	150
1760.000	150
1761.000	145
1762.000	153
1763.000	147
1764.000	148
1765.000	151
1766.000	151
1767.000	155
1768.000	151
1769.000	161
1770.000	160
1771.000	166
1772.000	167
1773.000	165
1774.000	165
1775.000	169
1776.000	172
1777.000	175
1778.000	173
1779.000	174
1780.000	178
1781.000	180
1782.000	179
1783.000	180
1784.000	182
1785.000	187
1786.000	184
1787.000	184
1788.000	188
1789.000	177
1790.000	189
1791.000	186
1792.000	180
1793.000	185
1794.000	185
1795.000	188
1796.000	188
1797.000	191
1798.000	178
1799.000	183
1800.000	182
1801.000	182
1802.000	187
1803.000	178
1804.000	174
1805.000	172
1806.000	173
1807.000	173
1808.000	175
1809.000	173
1810.000	174
1811.000	158
1812.000	166
1813.000	160
1814.000	163
1815.000	162
1816.000	156
1817.000	144
1818.000	147
1819.000	141
1820.000	150
1821.000	149
1822.000	136
1823.000	137
1824.000	149
1825.000	136
1826.000	137
1827.000	131
1828.000	133
1829.000	124
1830.000	121
1831.000	132
1832.000	120
1833.000	119
1834.000	118
1835.000	115
1836.000	116
1837.000	110
1838.000	115
1839.000	115
1840.000	111
1841.000	106
1842.000	104
1843.000	101
1844.000	106
1845.000	100
1846.000	99
1847.000	101
1848.000	97
1849.000	96
1850.000	90
1851.000	94
1852.000	86
1853.000	93
1854.000	94
1855.000	88
1856.000	91
1857.000	86
1858.000	84
1859.000	84
1860.000	81
1861.000	85
1862.000	86
1863.000	82
1864.000	85
1865.000	78
1866.000	80
1867.000	77
1868.000	77
1869.000	77
1870.000	79
1871.000	73
1872.000	79
1873.000	77
1874.000	75
1875.000	75
1876.000	76
1877.000	72
1878.000	75
1879.000	74
1880.000	74
1881.000	70
1882.000	70
1883.000	71
1884.000	72
1885.000	71
1886.000	75
1887.000	72
1888.000	72
1889.000	72
1890.000	72
1891.000	76
1892.000	79
1893.000	81
1894.000	82
1895.000	77
1896.000	84
1897.000	84
1898.000	95
1899.000	88
1900.000	96
1901.000	97
1902.000	103
1903.000	105
1904.000	107
1905.000	115
1906.000	105
1907.000	113
1908.000	115
1909.000	121
1910.000	122
1911.000	114
1912.000	117
1913.000	115
1914.000	120
1915.000	118
1916.000	106
1917.000	110
1918.000	107
1919.000	107
1920.000	100
1921.000	97
1922.000	93
1923.000	90
1924.000	84
1925.000	82
1926.000	76
1927.000	74
1928.000	72
1929.000	71
1930.000	73
1931.000	66
1932.000	73
1933.000	70
1934.000	67
1935.000	64
1936.000	71
1937.000	68
1938.000	65
1939.000	64
1940.000	66
1941.000	71
1942.000	66
1943.000	62
1944.000	64
1945.000	63
1946.000	63
1947.000	59
1948.000	68
1949.000	67
1950.000	62
1951.000	64
1952.000	60
1953.000	60
1954.000	61
1955.000	56
1956.000	57
1957.000	57
1958.000	57
1959.000	57
1960.000	55
1961.000	53
1962.000	51
1963.000	53
1964.000	51
1965.000	54
1966.000	51
1967.000	50
1968.000	50
1969.000	51
1970.000	50
1971.000	55
1972.000	47
1973.000	49
1974.000	51
1975.000	52
1976.000	48
1977.000	54
1978.000	48
1979.000	48
1980.000	48
1981.000	52
1982.000	50
1983.000	50
1984.000	46
1985.000	50
1986.000	51
1987.000	49
1988.000	46
1989.000	50
1990.000	48
1991.000	49
1992.000	47
1993.000	51
1994.000	50
1995.000	45
1996.000	51
1997.000	47
1998.000	47
1999.000	50
2000.000	46
2001.000	45
2002.000	45
2003.000	47
2004.000	46
2005.000	44
2006.000	47
2007.000	47
2008.000	44
2009.000	47
2010.000	45
2011.000	42
2012.000	48
2013.000	45
2014.000	47
2015.000	42
2016.000	49
2017.000	47
2018.000	45
2019.000	48
2020.000	47
2021.000	46
2022.000	45
2023.000	43
2024.000	48
2025.000	46
2026.000	47
2027.000	41
2028.000	45
2029.000	45
2030.000	49
2031.000	45
2032.000	42
2033.000	47
2034.000	43
2035.000	43
2036.000	44
2037.000	46
2038.000	46
2039.000	43
2040.000	42
2041.000	47
2042.000	46
2043.000	49
2044.000	46
2045.000	45
2046.000	43
2047.000	42
2048.000	0
