Date:	17-Sep-20		Time:	11:47 PM		Version no:	0.00		Project name:	55		Sample name:	222		Section name:	section		Position	0.000000	mm	E0	0.000000	keV	E1	1.000000	keV/channel	sample surface	2.000000	cm	Tube anode:	Mo		Tube voltage:	30	kV	Tube current:	30	mA	gain	15		std. database			resultfile	result		matrix element	11		sample thickness	1.000000		air passage	0.560000	cm	comments	not in position		peaking_time	0.300000	m-sec	trigger_threshold	40.000000	V	mca_bin_width	2.000000	no:	number_mca_channels	2048.000000	no:	gap_time	2048.000000	m-sec	trigger_peaking_time	2048.000000	m-sec	GAINDAC	400		HIGHGAIN	400		TAURC	400		RCTAU	400		RCTAUFRAC	400		livetime	13.014294	seconds	runtime	15.000232	seconds	input_count_rate	80431.410221	cps	output_count_rate	69782.785033	cps	triggers	1173264	seconds	events_in_run	1020480	seconds	channel	content		1.000	0
2.000	0
3.000	0
4.000	0
5.000	0
6.000	0
7.000	0
8.000	0
9.000	0
10.000	0
11.000	0
12.000	0
13.000	0
14.000	0
15.000	0
16.000	0
17.000	0
18.000	0
19.000	0
20.000	0
21.000	0
22.000	0
23.000	0
24.000	0
25.000	0
26.000	0
27.000	0
28.000	0
29.000	0
30.000	0
31.000	0
32.000	0
33.000	0
34.000	0
35.000	1
36.000	1
37.000	0
38.000	0
39.000	1
40.000	0
41.000	1
42.000	1
43.000	0
44.000	1
45.000	0
46.000	0
47.000	0
48.000	0
49.000	1
50.000	2
51.000	2
52.000	2
53.000	3
54.000	4
55.000	3
56.000	6
57.000	7
58.000	11
59.000	16
60.000	21
61.000	27
62.000	30
63.000	30
64.000	28
65.000	31
66.000	31
67.000	25
68.000	26
69.000	24
70.000	24
71.000	25
72.000	25
73.000	26
74.000	24
75.000	25
76.000	23
77.000	24
78.000	23
79.000	23
80.000	23
81.000	24
82.000	23
83.000	25
84.000	25
85.000	26
86.000	23
87.000	25
88.000	23
89.000	24
90.000	23
91.000	23
92.000	21
93.000	21
94.000	21
95.000	18
96.000	18
97.000	22
98.000	21
99.000	19
100.000	19
101.000	23
102.000	20
103.000	21
104.000	18
105.000	21
106.000	19
107.000	20
108.000	19
109.000	21
110.000	19
111.000	18
112.000	18
113.000	19
114.000	18
115.000	19
116.000	18
117.000	18
118.000	19
119.000	16
120.000	19
121.000	20
122.000	15
123.000	16
124.000	17
125.000	17
126.000	15
127.000	17
128.000	13
129.000	15
130.000	16
131.000	14
132.000	14
133.000	17
134.000	18
135.000	15
136.000	15
137.000	15
138.000	16
139.000	17
140.000	19
141.000	20
142.000	19
143.000	23
144.000	26
145.000	29
146.000	26
147.000	29
148.000	22
149.000	24
150.000	23
151.000	23
152.000	19
153.000	20
154.000	18
155.000	18
156.000	16
157.000	16
158.000	15
159.000	14
160.000	14
161.000	15
162.000	17
163.000	17
164.000	25
165.000	25
166.000	37
167.000	41
168.000	54
169.000	59
170.000	68
171.000	67
172.000	60
173.000	60
174.000	51
175.000	47
176.000	36
177.000	33
178.000	30
179.000	28
180.000	33
181.000	37
182.000	40
183.000	53
184.000	68
185.000	89
186.000	111
187.000	149
188.000	181
189.000	202
190.000	220
191.000	229
192.000	226
193.000	204
194.000	172
195.000	132
196.000	109
197.000	73
198.000	57
199.000	40
200.000	29
201.000	20
202.000	19
203.000	17
204.000	13
205.000	14
206.000	13
207.000	15
208.000	17
209.000	17
210.000	15
211.000	18
212.000	18
213.000	21
214.000	20
215.000	19
216.000	23
217.000	27
218.000	34
219.000	36
220.000	37
221.000	39
222.000	44
223.000	48
224.000	42
225.000	44
226.000	40
227.000	36
228.000	30
229.000	28
230.000	23
231.000	21
232.000	18
233.000	16
234.000	14
235.000	12
236.000	13
237.000	14
238.000	12
239.000	14
240.000	15
241.000	15
242.000	14
243.000	15
244.000	15
245.000	17
246.000	17
247.000	21
248.000	28
249.000	35
250.000	47
251.000	64
252.000	81
253.000	102
254.000	124
255.000	137
256.000	147
257.000	159
258.000	151
259.000	146
260.000	119
261.000	103
262.000	76
263.000	62
264.000	48
265.000	35
266.000	26
267.000	26
268.000	23
269.000	24
270.000	21
271.000	24
272.000	26
273.000	27
274.000	30
275.000	31
276.000	30
277.000	32
278.000	30
279.000	27
280.000	31
281.000	29
282.000	32
283.000	35
284.000	43
285.000	50
286.000	61
287.000	67
288.000	76
289.000	75
290.000	78
291.000	81
292.000	69
293.000	63
294.000	54
295.000	49
296.000	39
297.000	35
298.000	27
299.000	24
300.000	22
301.000	21
302.000	22
303.000	21
304.000	21
305.000	23
306.000	27
307.000	26
308.000	28
309.000	29
310.000	30
311.000	38
312.000	43
313.000	45
314.000	54
315.000	67
316.000	78
317.000	112
318.000	133
319.000	168
320.000	216
321.000	261
322.000	290
323.000	320
324.000	335
325.000	329
326.000	324
327.000	296
328.000	252
329.000	207
330.000	166
331.000	136
332.000	97
333.000	76
334.000	54
335.000	44
336.000	38
337.000	32
338.000	35
339.000	39
340.000	40
341.000	50
342.000	63
343.000	80
344.000	99
345.000	137
346.000	199
347.000	290
348.000	455
349.000	731
350.000	1110
351.000	1719
352.000	2635
353.000	3880
354.000	5479
355.000	7410
356.000	9798
357.000	12252
358.000	14656
359.000	16712
360.000	18291
361.000	18933
362.000	18903
363.000	17879
364.000	16209
365.000	13965
366.000	11455
367.000	9022
368.000	6749
369.000	4877
370.000	3340
371.000	2225
372.000	1409
373.000	865
374.000	528
375.000	320
376.000	223
377.000	168
378.000	153
379.000	170
380.000	202
381.000	258
382.000	362
383.000	470
384.000	640
385.000	863
386.000	1127
387.000	1457
388.000	1763
389.000	2109
390.000	2428
391.000	2635
392.000	2803
393.000	2832
394.000	2744
395.000	2553
396.000	2278
397.000	1925
398.000	1570
399.000	1242
400.000	933
401.000	686
402.000	461
403.000	314
404.000	205
405.000	126
406.000	75
407.000	49
408.000	31
409.000	20
410.000	15
411.000	11
412.000	10
413.000	8
414.000	9
415.000	9
416.000	9
417.000	8
418.000	9
419.000	9
420.000	9
421.000	8
422.000	9
423.000	8
424.000	9
425.000	9
426.000	12
427.000	15
428.000	16
429.000	22
430.000	30
431.000	38
432.000	50
433.000	69
434.000	97
435.000	116
436.000	148
437.000	167
438.000	193
439.000	219
440.000	224
441.000	226
442.000	223
443.000	210
444.000	187
445.000	174
446.000	148
447.000	118
448.000	99
449.000	84
450.000	64
451.000	56
452.000	43
453.000	37
454.000	39
455.000	36
456.000	30
457.000	30
458.000	31
459.000	25
460.000	22
461.000	21
462.000	20
463.000	20
464.000	18
465.000	18
466.000	18
467.000	17
468.000	17
469.000	18
470.000	19
471.000	20
472.000	26
473.000	24
474.000	29
475.000	31
476.000	36
477.000	40
478.000	49
479.000	47
480.000	50
481.000	54
482.000	50
483.000	56
484.000	53
485.000	46
486.000	43
487.000	40
488.000	37
489.000	34
490.000	27
491.000	24
492.000	21
493.000	20
494.000	19
495.000	16
496.000	16
497.000	15
498.000	18
499.000	15
500.000	17
501.000	18
502.000	16
503.000	19
504.000	18
505.000	18
506.000	16
507.000	20
508.000	18
509.000	23
510.000	17
511.000	19
512.000	21
513.000	21
514.000	23
515.000	23
516.000	25
517.000	26
518.000	26
519.000	28
520.000	30
521.000	33
522.000	32
523.000	34
524.000	39
525.000	39
526.000	42
527.000	46
528.000	47
529.000	45
530.000	47
531.000	46
532.000	44
533.000	39
534.000	38
535.000	32
536.000	34
537.000	30
538.000	27
539.000	25
540.000	20
541.000	23
542.000	22
543.000	22
544.000	23
545.000	22
546.000	23
547.000	25
548.000	23
549.000	22
550.000	21
551.000	24
552.000	25
553.000	24
554.000	24
555.000	27
556.000	25
557.000	27
558.000	25
559.000	26
560.000	29
561.000	34
562.000	34
563.000	37
564.000	41
565.000	45
566.000	51
567.000	62
568.000	67
569.000	83
570.000	98
571.000	109
572.000	130
573.000	137
574.000	140
575.000	155
576.000	153
577.000	154
578.000	147
579.000	139
580.000	125
581.000	113
582.000	106
583.000	90
584.000	78
585.000	64
586.000	59
587.000	49
588.000	44
589.000	37
590.000	34
591.000	35
592.000	32
593.000	30
594.000	30
595.000	28
596.000	34
597.000	32
598.000	31
599.000	32
600.000	31
601.000	38
602.000	38
603.000	42
604.000	51
605.000	55
606.000	63
607.000	84
608.000	111
609.000	152
610.000	207
611.000	298
612.000	416
613.000	576
614.000	801
615.000	1086
616.000	1435
617.000	1846
618.000	2308
619.000	2833
620.000	3348
621.000	3865
622.000	4323
623.000	4679
624.000	4923
625.000	5063
626.000	5060
627.000	4886
628.000	4529
629.000	4109
630.000	3681
631.000	3130
632.000	2593
633.000	2120
634.000	1676
635.000	1279
636.000	974
637.000	712
638.000	528
639.000	371
640.000	263
641.000	199
642.000	142
643.000	109
644.000	90
645.000	78
646.000	65
647.000	65
648.000	60
649.000	56
650.000	55
651.000	53
652.000	58
653.000	55
654.000	53
655.000	57
656.000	55
657.000	55
658.000	59
659.000	55
660.000	54
661.000	61
662.000	63
663.000	62
664.000	60
665.000	66
666.000	69
667.000	65
668.000	73
669.000	76
670.000	80
671.000	86
672.000	96
673.000	106
674.000	118
675.000	138
676.000	160
677.000	190
678.000	223
679.000	269
680.000	333
681.000	397
682.000	475
683.000	541
684.000	627
685.000	691
686.000	752
687.000	811
688.000	852
689.000	831
690.000	856
691.000	825
692.000	778
693.000	725
694.000	622
695.000	566
696.000	472
697.000	402
698.000	339
699.000	269
700.000	221
701.000	177
702.000	142
703.000	122
704.000	98
705.000	81
706.000	74
707.000	71
708.000	63
709.000	60
710.000	60
711.000	56
712.000	61
713.000	58
714.000	64
715.000	66
716.000	65
717.000	67
718.000	72
719.000	76
720.000	83
721.000	82
722.000	84
723.000	94
724.000	90
725.000	89
726.000	90
727.000	94
728.000	89
729.000	100
730.000	92
731.000	89
732.000	88
733.000	86
734.000	86
735.000	84
736.000	80
737.000	76
738.000	74
739.000	79
740.000	71
741.000	76
742.000	68
743.000	67
744.000	70
745.000	66
746.000	65
747.000	68
748.000	58
749.000	70
750.000	69
751.000	67
752.000	67
753.000	69
754.000	71
755.000	68
756.000	64
757.000	64
758.000	68
759.000	70
760.000	72
761.000	72
762.000	69
763.000	73
764.000	76
765.000	71
766.000	71
767.000	72
768.000	76
769.000	77
770.000	75
771.000	80
772.000	82
773.000	82
774.000	86
775.000	85
776.000	90
777.000	94
778.000	90
779.000	102
780.000	100
781.000	113
782.000	111
783.000	112
784.000	128
785.000	121
786.000	128
787.000	124
788.000	135
789.000	133
790.000	136
791.000	135
792.000	134
793.000	140
794.000	138
795.000	140
796.000	138
797.000	138
798.000	136
799.000	137
800.000	140
801.000	136
802.000	144
803.000	143
804.000	146
805.000	154
806.000	157
807.000	160
808.000	161
809.000	179
810.000	184
811.000	205
812.000	213
813.000	234
814.000	246
815.000	265
816.000	275
817.000	283
818.000	289
819.000	290
820.000	288
821.000	291
822.000	283
823.000	272
824.000	255
825.000	248
826.000	217
827.000	201
828.000	189
829.000	177
830.000	166
831.000	144
832.000	145
833.000	134
834.000	131
835.000	129
836.000	126
837.000	123
838.000	122
839.000	127
840.000	124
841.000	134
842.000	133
843.000	127
844.000	124
845.000	131
846.000	127
847.000	119
848.000	123
849.000	118
850.000	120
851.000	117
852.000	122
853.000	117
854.000	118
855.000	117
856.000	118
857.000	111
858.000	109
859.000	110
860.000	116
861.000	112
862.000	114
863.000	109
864.000	116
865.000	114
866.000	117
867.000	112
868.000	112
869.000	111
870.000	111
871.000	114
872.000	112
873.000	113
874.000	115
875.000	112
876.000	119
877.000	116
878.000	117
879.000	118
880.000	110
881.000	113
882.000	115
883.000	114
884.000	114
885.000	117
886.000	117
887.000	118
888.000	115
889.000	126
890.000	120
891.000	120
892.000	124
893.000	123
894.000	127
895.000	128
896.000	124
897.000	131
898.000	134
899.000	134
900.000	137
901.000	144
902.000	144
903.000	150
904.000	145
905.000	144
906.000	148
907.000	159
908.000	154
909.000	152
910.000	152
911.000	165
912.000	158
913.000	162
914.000	168
915.000	166
916.000	168
917.000	161
918.000	167
919.000	159
920.000	172
921.000	174
922.000	177
923.000	184
924.000	185
925.000	172
926.000	177
927.000	178
928.000	182
929.000	194
930.000	191
931.000	201
932.000	195
933.000	206
934.000	207
935.000	217
936.000	223
937.000	233
938.000	237
939.000	242
940.000	255
941.000	247
942.000	264
943.000	256
944.000	258
945.000	256
946.000	250
947.000	241
948.000	239
949.000	238
950.000	226
951.000	216
952.000	207
953.000	204
954.000	198
955.000	187
956.000	186
957.000	179
958.000	178
959.000	170
960.000	169
961.000	174
962.000	173
963.000	180
964.000	176
965.000	171
966.000	180
967.000	171
968.000	181
969.000	176
970.000	175
971.000	181
972.000	180
973.000	182
974.000	181
975.000	177
976.000	174
977.000	174
978.000	172
979.000	171
980.000	172
981.000	159
982.000	159
983.000	156
984.000	157
985.000	150
986.000	145
987.000	137
988.000	140
989.000	139
990.000	142
991.000	139
992.000	144
993.000	138
994.000	139
995.000	138
996.000	134
997.000	134
998.000	137
999.000	130
1000.000	132
1001.000	129
1002.000	131
1003.000	129
1004.000	124
1005.000	129
1006.000	126
1007.000	132
1008.000	131
1009.000	135
1010.000	134
1011.000	133
1012.000	129
1013.000	133
1014.000	131
1015.000	135
1016.000	135
1017.000	143
1018.000	129
1019.000	141
1020.000	143
1021.000	134
1022.000	140
1023.000	138
1024.000	139
1025.000	137
1026.000	143
1027.000	141
1028.000	144
1029.000	142
1030.000	139
1031.000	141
1032.000	135
1033.000	140
1034.000	144
1035.000	140
1036.000	140
1037.000	144
1038.000	144
1039.000	145
1040.000	145
1041.000	145
1042.000	146
1043.000	149
1044.000	146
1045.000	150
1046.000	151
1047.000	153
1048.000	147
1049.000	146
1050.000	151
1051.000	147
1052.000	146
1053.000	155
1054.000	151
1055.000	152
1056.000	155
1057.000	153
1058.000	151
1059.000	154
1060.000	158
1061.000	152
1062.000	152
1063.000	161
1064.000	157
1065.000	157
1066.000	155
1067.000	159
1068.000	147
1069.000	155
1070.000	161
1071.000	154
1072.000	154
1073.000	154
1074.000	153
1075.000	154
1076.000	154
1077.000	150
1078.000	156
1079.000	154
1080.000	151
1081.000	157
1082.000	148
1083.000	156
1084.000	157
1085.000	148
1086.000	152
1087.000	152
1088.000	147
1089.000	162
1090.000	151
1091.000	157
1092.000	164
1093.000	161
1094.000	172
1095.000	169
1096.000	165
1097.000	166
1098.000	172
1099.000	164
1100.000	170
1101.000	181
1102.000	170
1103.000	172
1104.000	169
1105.000	165
1106.000	164
1107.000	172
1108.000	162
1109.000	166
1110.000	159
1111.000	167
1112.000	161
1113.000	165
1114.000	154
1115.000	155
1116.000	158
1117.000	161
1118.000	157
1119.000	155
1120.000	156
1121.000	160
1122.000	157
1123.000	154
1124.000	159
1125.000	164
1126.000	163
1127.000	155
1128.000	159
1129.000	159
1130.000	162
1131.000	156
1132.000	157
1133.000	157
1134.000	163
1135.000	167
1136.000	162
1137.000	161
1138.000	157
1139.000	166
1140.000	160
1141.000	162
1142.000	168
1143.000	162
1144.000	159
1145.000	163
1146.000	163
1147.000	166
1148.000	164
1149.000	160
1150.000	166
1151.000	170
1152.000	172
1153.000	167
1154.000	172
1155.000	175
1156.000	179
1157.000	174
1158.000	182
1159.000	180
1160.000	179
1161.000	187
1162.000	186
1163.000	184
1164.000	179
1165.000	184
1166.000	180
1167.000	181
1168.000	175
1169.000	182
1170.000	178
1171.000	167
1172.000	170
1173.000	167
1174.000	161
1175.000	158
1176.000	165
1177.000	160
1178.000	166
1179.000	163
1180.000	167
1181.000	157
1182.000	159
1183.000	162
1184.000	154
1185.000	161
1186.000	158
1187.000	155
1188.000	160
1189.000	150
1190.000	162
1191.000	161
1192.000	160
1193.000	155
1194.000	160
1195.000	157
1196.000	155
1197.000	157
1198.000	162
1199.000	163
1200.000	155
1201.000	166
1202.000	159
1203.000	160
1204.000	159
1205.000	159
1206.000	155
1207.000	159
1208.000	159
1209.000	157
1210.000	168
1211.000	158
1212.000	162
1213.000	163
1214.000	162
1215.000	159
1216.000	165
1217.000	155
1218.000	168
1219.000	162
1220.000	168
1221.000	160
1222.000	160
1223.000	168
1224.000	167
1225.000	164
1226.000	170
1227.000	169
1228.000	166
1229.000	170
1230.000	165
1231.000	168
1232.000	166
1233.000	167
1234.000	162
1235.000	168
1236.000	172
1237.000	165
1238.000	169
1239.000	168
1240.000	167
1241.000	166
1242.000	175
1243.000	169
1244.000	169
1245.000	174
1246.000	163
1247.000	170
1248.000	165
1249.000	163
1250.000	166
1251.000	169
1252.000	171
1253.000	164
1254.000	167
1255.000	163
1256.000	164
1257.000	164
1258.000	162
1259.000	168
1260.000	167
1261.000	167
1262.000	164
1263.000	159
1264.000	168
1265.000	162
1266.000	166
1267.000	167
1268.000	163
1269.000	164
1270.000	168
1271.000	163
1272.000	157
1273.000	170
1274.000	168
1275.000	160
1276.000	165
1277.000	167
1278.000	164
1279.000	172
1280.000	157
1281.000	159
1282.000	167
1283.000	164
1284.000	163
1285.000	168
1286.000	165
1287.000	167
1288.000	167
1289.000	169
1290.000	171
1291.000	175
1292.000	177
1293.000	174
1294.000	179
1295.000	179
1296.000	182
1297.000	186
1298.000	176
1299.000	190
1300.000	190
1301.000	189
1302.000	189
1303.000	189
1304.000	188
1305.000	189
1306.000	192
1307.000	183
1308.000	183
1309.000	192
1310.000	191
1311.000	184
1312.000	177
1313.000	176
1314.000	177
1315.000	176
1316.000	177
1317.000	174
1318.000	174
1319.000	179
1320.000	186
1321.000	174
1322.000	172
1323.000	173
1324.000	172
1325.000	179
1326.000	163
1327.000	177
1328.000	171
1329.000	172
1330.000	169
1331.000	174
1332.000	177
1333.000	172
1334.000	170
1335.000	166
1336.000	173
1337.000	175
1338.000	173
1339.000	169
1340.000	168
1341.000	170
1342.000	174
1343.000	172
1344.000	160
1345.000	172
1346.000	168
1347.000	173
1348.000	178
1349.000	170
1350.000	166
1351.000	179
1352.000	179
1353.000	178
1354.000	183
1355.000	190
1356.000	191
1357.000	198
1358.000	207
1359.000	222
1360.000	230
1361.000	245
1362.000	266
1363.000	287
1364.000	304
1365.000	342
1366.000	373
1367.000	402
1368.000	454
1369.000	490
1370.000	529
1371.000	570
1372.000	620
1373.000	657
1374.000	708
1375.000	725
1376.000	766
1377.000	791
1378.000	799
1379.000	812
1380.000	848
1381.000	806
1382.000	791
1383.000	769
1384.000	737
1385.000	708
1386.000	661
1387.000	629
1388.000	573
1389.000	538
1390.000	495
1391.000	453
1392.000	402
1393.000	368
1394.000	328
1395.000	298
1396.000	276
1397.000	259
1398.000	229
1399.000	223
1400.000	212
1401.000	197
1402.000	191
1403.000	183
1404.000	172
1405.000	177
1406.000	173
1407.000	177
1408.000	170
1409.000	171
1410.000	172
1411.000	174
1412.000	177
1413.000	171
1414.000	171
1415.000	167
1416.000	166
1417.000	163
1418.000	170
1419.000	161
1420.000	171
1421.000	169
1422.000	165
1423.000	161
1424.000	166
1425.000	168
1426.000	162
1427.000	167
1428.000	170
1429.000	166
1430.000	174
1431.000	177
1432.000	165
1433.000	174
1434.000	167
1435.000	166
1436.000	175
1437.000	166
1438.000	172
1439.000	175
1440.000	179
1441.000	174
1442.000	172
1443.000	177
1444.000	172
1445.000	180
1446.000	181
1447.000	177
1448.000	176
1449.000	173
1450.000	179
1451.000	181
1452.000	192
1453.000	185
1454.000	177
1455.000	187
1456.000	181
1457.000	178
1458.000	182
1459.000	185
1460.000	184
1461.000	183
1462.000	185
1463.000	179
1464.000	182
1465.000	182
1466.000	184
1467.000	183
1468.000	185
1469.000	179
1470.000	168
1471.000	177
1472.000	174
1473.000	173
1474.000	178
1475.000	174
1476.000	176
1477.000	175
1478.000	179
1479.000	167
1480.000	178
1481.000	175
1482.000	171
1483.000	173
1484.000	177
1485.000	174
1486.000	164
1487.000	179
1488.000	185
1489.000	171
1490.000	172
1491.000	178
1492.000	181
1493.000	175
1494.000	176
1495.000	178
1496.000	171
1497.000	174
1498.000	180
1499.000	178
1500.000	175
1501.000	182
1502.000	183
1503.000	179
1504.000	175
1505.000	187
1506.000	182
1507.000	188
1508.000	181
1509.000	182
1510.000	182
1511.000	182
1512.000	179
1513.000	187
1514.000	186
1515.000	187
1516.000	188
1517.000	191
1518.000	191
1519.000	191
1520.000	196
1521.000	196
1522.000	201
1523.000	196
1524.000	209
1525.000	207
1526.000	216
1527.000	218
1528.000	219
1529.000	236
1530.000	239
1531.000	239
1532.000	252
1533.000	255
1534.000	263
1535.000	276
1536.000	282
1537.000	290
1538.000	291
1539.000	295
1540.000	314
1541.000	312
1542.000	318
1543.000	324
1544.000	332
1545.000	319
1546.000	323
1547.000	314
1548.000	312
1549.000	307
1550.000	311
1551.000	307
1552.000	292
1553.000	288
1554.000	279
1555.000	279
1556.000	273
1557.000	265
1558.000	262
1559.000	262
1560.000	269
1561.000	270
1562.000	262
1563.000	266
1564.000	261
1565.000	272
1566.000	273
1567.000	294
1568.000	293
1569.000	291
1570.000	290
1571.000	308
1572.000	305
1573.000	314
1574.000	324
1575.000	337
1576.000	335
1577.000	344
1578.000	355
1579.000	350
1580.000	375
1581.000	378
1582.000	386
1583.000	403
1584.000	406
1585.000	425
1586.000	434
1587.000	445
1588.000	448
1589.000	470
1590.000	474
1591.000	472
1592.000	497
1593.000	506
1594.000	518
1595.000	532
1596.000	526
1597.000	561
1598.000	553
1599.000	580
1600.000	572
1601.000	578
1602.000	579
1603.000	594
1604.000	592
1605.000	593
1606.000	583
1607.000	596
1608.000	598
1609.000	600
1610.000	606
1611.000	589
1612.000	593
1613.000	588
1614.000	584
1615.000	577
1616.000	574
1617.000	569
1618.000	561
1619.000	544
1620.000	545
1621.000	520
1622.000	514
1623.000	510
1624.000	489
1625.000	481
1626.000	464
1627.000	452
1628.000	456
1629.000	441
1630.000	430
1631.000	401
1632.000	403
1633.000	400
1634.000	389
1635.000	376
1636.000	364
1637.000	352
1638.000	341
1639.000	338
1640.000	334
1641.000	318
1642.000	306
1643.000	291
1644.000	292
1645.000	285
1646.000	267
1647.000	265
1648.000	258
1649.000	248
1650.000	250
1651.000	244
1652.000	243
1653.000	223
1654.000	227
1655.000	224
1656.000	215
1657.000	212
1658.000	212
1659.000	203
1660.000	206
1661.000	206
1662.000	196
1663.000	200
1664.000	192
1665.000	189
1666.000	185
1667.000	183
1668.000	192
1669.000	182
1670.000	179
1671.000	180
1672.000	178
1673.000	175
1674.000	185
1675.000	187
1676.000	193
1677.000	200
1678.000	194
1679.000	199
1680.000	213
1681.000	224
1682.000	236
1683.000	250
1684.000	257
1685.000	274
1686.000	294
1687.000	319
1688.000	321
1689.000	346
1690.000	367
1691.000	389
1692.000	414
1693.000	436
1694.000	458
1695.000	471
1696.000	485
1697.000	512
1698.000	520
1699.000	532
1700.000	561
1701.000	537
1702.000	535
1703.000	544
1704.000	534
1705.000	525
1706.000	520
1707.000	495
1708.000	483
1709.000	435
1710.000	411
1711.000	403
1712.000	386
1713.000	344
1714.000	331
1715.000	314
1716.000	276
1717.000	262
1718.000	247
1719.000	230
1720.000	212
1721.000	200
1722.000	193
1723.000	182
1724.000	173
1725.000	170
1726.000	154
1727.000	148
1728.000	153
1729.000	145
1730.000	144
1731.000	140
1732.000	149
1733.000	139
1734.000	140
1735.000	138
1736.000	141
1737.000	145
1738.000	142
1739.000	137
1740.000	145
1741.000	145
1742.000	143
1743.000	142
1744.000	140
1745.000	136
1746.000	136
1747.000	140
1748.000	142
1749.000	139
1750.000	143
1751.000	149
1752.000	150
1753.000	144
1754.000	144
1755.000	141
1756.000	151
1757.000	154
1758.000	156
1759.000	152
1760.000	152
1761.000	147
1762.000	151
1763.000	147
1764.000	159
1765.000	160
1766.000	163
1767.000	160
1768.000	162
1769.000	157
1770.000	169
1771.000	163
1772.000	168
1773.000	175
1774.000	167
1775.000	174
1776.000	172
1777.000	179
1778.000	184
1779.000	180
1780.000	181
1781.000	193
1782.000	186
1783.000	186
1784.000	186
1785.000	182
1786.000	185
1787.000	187
1788.000	192
1789.000	190
1790.000	193
1791.000	198
1792.000	198
1793.000	199
1794.000	192
1795.000	190
1796.000	189
1797.000	186
1798.000	190
1799.000	185
1800.000	188
1801.000	189
1802.000	189
1803.000	184
1804.000	186
1805.000	176
1806.000	183
1807.000	177
1808.000	184
1809.000	170
1810.000	169
1811.000	168
1812.000	167
1813.000	155
1814.000	167
1815.000	161
1816.000	162
1817.000	166
1818.000	159
1819.000	152
1820.000	150
1821.000	145
1822.000	153
1823.000	148
1824.000	143
1825.000	146
1826.000	142
1827.000	139
1828.000	140
1829.000	132
1830.000	132
1831.000	126
1832.000	126
1833.000	126
1834.000	126
1835.000	117
1836.000	112
1837.000	115
1838.000	124
1839.000	114
1840.000	110
1841.000	111
1842.000	105
1843.000	103
1844.000	107
1845.000	104
1846.000	105
1847.000	103
1848.000	99
1849.000	98
1850.000	101
1851.000	96
1852.000	97
1853.000	87
1854.000	100
1855.000	90
1856.000	85
1857.000	93
1858.000	90
1859.000	90
1860.000	84
1861.000	82
1862.000	81
1863.000	83
1864.000	83
1865.000	79
1866.000	84
1867.000	85
1868.000	77
1869.000	85
1870.000	77
1871.000	79
1872.000	73
1873.000	78
1874.000	81
1875.000	73
1876.000	70
1877.000	72
1878.000	78
1879.000	74
1880.000	74
1881.000	75
1882.000	73
1883.000	73
1884.000	79
1885.000	74
1886.000	74
1887.000	74
1888.000	75
1889.000	75
1890.000	74
1891.000	72
1892.000	77
1893.000	79
1894.000	80
1895.000	83
1896.000	85
1897.000	89
1898.000	89
1899.000	97
1900.000	92
1901.000	99
1902.000	102
1903.000	104
1904.000	109
1905.000	110
1906.000	117
1907.000	110
1908.000	117
1909.000	118
1910.000	121
1911.000	116
1912.000	126
1913.000	116
1914.000	116
1915.000	116
1916.000	114
1917.000	112
1918.000	114
1919.000	108
1920.000	98
1921.000	98
1922.000	95
1923.000	90
1924.000	85
1925.000	84
1926.000	84
1927.000	82
1928.000	77
1929.000	75
1930.000	75
1931.000	74
1932.000	69
1933.000	69
1934.000	69
1935.000	66
1936.000	69
1937.000	71
1938.000	72
1939.000	65
1940.000	66
1941.000	63
1942.000	65
1943.000	69
1944.000	68
1945.000	66
1946.000	67
1947.000	65
1948.000	67
1949.000	65
1950.000	64
1951.000	69
1952.000	61
1953.000	59
1954.000	60
1955.000	60
1956.000	56
1957.000	56
1958.000	58
1959.000	59
1960.000	53
1961.000	53
1962.000	53
1963.000	55
1964.000	54
1965.000	55
1966.000	54
1967.000	51
1968.000	52
1969.000	54
1970.000	52
1971.000	53
1972.000	51
1973.000	50
1974.000	49
1975.000	51
1976.000	51
1977.000	52
1978.000	49
1979.000	48
1980.000	54
1981.000	51
1982.000	49
1983.000	51
1984.000	51
1985.000	50
1986.000	49
1987.000	48
1988.000	51
1989.000	52
1990.000	53
1991.000	48
1992.000	47
1993.000	51
1994.000	49
1995.000	49
1996.000	49
1997.000	50
1998.000	51
1999.000	49
2000.000	50
2001.000	51
2002.000	47
2003.000	46
2004.000	50
2005.000	46
2006.000	50
2007.000	46
2008.000	47
2009.000	49
2010.000	49
2011.000	47
2012.000	55
2013.000	50
2014.000	47
2015.000	49
2016.000	43
2017.000	46
2018.000	48
2019.000	48
2020.000	48
2021.000	48
2022.000	48
2023.000	46
2024.000	46
2025.000	47
2026.000	46
2027.000	47
2028.000	50
2029.000	44
2030.000	42
2031.000	46
2032.000	47
2033.000	44
2034.000	47
2035.000	47
2036.000	43
2037.000	45
2038.000	50
2039.000	46
2040.000	50
2041.000	43
2042.000	48
2043.000	47
2044.000	46
2045.000	49
2046.000	46
2047.000	46
2048.000	0
