Date:	22-Sep-20		Time:	10:49 PM		Version no:	0.00		Project name:	55		Sample name:	222		Section name:	section		Position	0.000000	mm	E0	0.000000	keV	E1	1.000000	keV/channel	sample surface	2.000000	cm	Tube anode:	Mo		Tube voltage:	30	kV	Tube current:	30	mA	gain	15		std. database			resultfile	result		matrix element	11		sample thickness	1.000000		air passage	0.560000	cm	comments	not in position		peaking_time	0.300000	m-sec	trigger_threshold	40.000000	V	mca_bin_width	2.000000	no:	number_mca_channels	2048.000000	no:	gap_time	2048.000000	m-sec	trigger_peaking_time	2048.000000	m-sec	GAINDAC	400		HIGHGAIN	400		TAURC	400		RCTAU	400		RCTAUFRAC	400		livetime	12.778311	seconds	runtime	15.000098	seconds	input_count_rate	8453.386602	cps	output_count_rate	7201.286285	cps	triggers	126178	seconds	events_in_run	98622	seconds	channel	content		1.000	0
2.000	0
3.000	0
4.000	0
5.000	0
6.000	0
7.000	0
8.000	0
9.000	0
10.000	0
11.000	0
12.000	0
13.000	0
14.000	0
15.000	0
16.000	0
17.000	0
18.000	0
19.000	0
20.000	0
21.000	0
22.000	0
23.000	0
24.000	0
25.000	0
26.000	0
27.000	0
28.000	0
29.000	0
30.000	0
31.000	0
32.000	0
33.000	0
34.000	1
35.000	0
36.000	0
37.000	0
38.000	1
39.000	0
40.000	0
41.000	0
42.000	0
43.000	0
44.000	0
45.000	1
46.000	0
47.000	0
48.000	0
49.000	1
50.000	1
51.000	2
52.000	1
53.000	3
54.000	3
55.000	5
56.000	7
57.000	9
58.000	13
59.000	18
60.000	20
61.000	24
62.000	31
63.000	30
64.000	28
65.000	30
66.000	27
67.000	24
68.000	27
69.000	25
70.000	28
71.000	26
72.000	26
73.000	25
74.000	25
75.000	25
76.000	21
77.000	24
78.000	24
79.000	21
80.000	24
81.000	24
82.000	23
83.000	24
84.000	26
85.000	27
86.000	24
87.000	24
88.000	24
89.000	20
90.000	21
91.000	21
92.000	20
93.000	21
94.000	23
95.000	20
96.000	22
97.000	21
98.000	19
99.000	20
100.000	19
101.000	19
102.000	16
103.000	17
104.000	20
105.000	19
106.000	19
107.000	18
108.000	21
109.000	18
110.000	17
111.000	20
112.000	16
113.000	18
114.000	17
115.000	17
116.000	17
117.000	16
118.000	19
119.000	17
120.000	15
121.000	18
122.000	15
123.000	15
124.000	16
125.000	16
126.000	15
127.000	16
128.000	16
129.000	14
130.000	14
131.000	15
132.000	14
133.000	15
134.000	15
135.000	16
136.000	14
137.000	17
138.000	16
139.000	17
140.000	19
141.000	19
142.000	21
143.000	21
144.000	25
145.000	26
146.000	24
147.000	23
148.000	22
149.000	20
150.000	20
151.000	19
152.000	18
153.000	17
154.000	17
155.000	19
156.000	15
157.000	15
158.000	15
159.000	12
160.000	14
161.000	13
162.000	15
163.000	18
164.000	20
165.000	25
166.000	27
167.000	36
168.000	42
169.000	50
170.000	50
171.000	53
172.000	55
173.000	47
174.000	42
175.000	34
176.000	35
177.000	26
178.000	26
179.000	27
180.000	29
181.000	34
182.000	40
183.000	48
184.000	64
185.000	82
186.000	105
187.000	144
188.000	169
189.000	206
190.000	216
191.000	223
192.000	223
193.000	195
194.000	172
195.000	134
196.000	107
197.000	76
198.000	51
199.000	40
200.000	28
201.000	22
202.000	16
203.000	15
204.000	14
205.000	15
206.000	16
207.000	16
208.000	14
209.000	14
210.000	15
211.000	16
212.000	18
213.000	18
214.000	16
215.000	21
216.000	22
217.000	25
218.000	28
219.000	33
220.000	38
221.000	39
222.000	42
223.000	48
224.000	41
225.000	41
226.000	37
227.000	29
228.000	27
229.000	24
230.000	21
231.000	17
232.000	18
233.000	13
234.000	15
235.000	14
236.000	11
237.000	12
238.000	14
239.000	14
240.000	12
241.000	13
242.000	15
243.000	12
244.000	14
245.000	14
246.000	17
247.000	20
248.000	26
249.000	38
250.000	49
251.000	60
252.000	81
253.000	100
254.000	115
255.000	141
256.000	152
257.000	151
258.000	154
259.000	143
260.000	119
261.000	108
262.000	81
263.000	67
264.000	51
265.000	36
266.000	27
267.000	24
268.000	19
269.000	21
270.000	21
271.000	24
272.000	24
273.000	26
274.000	28
275.000	30
276.000	29
277.000	33
278.000	28
279.000	28
280.000	26
281.000	27
282.000	27
283.000	30
284.000	32
285.000	39
286.000	41
287.000	50
288.000	56
289.000	58
290.000	59
291.000	57
292.000	54
293.000	53
294.000	43
295.000	37
296.000	32
297.000	26
298.000	23
299.000	22
300.000	19
301.000	20
302.000	21
303.000	22
304.000	20
305.000	24
306.000	24
307.000	26
308.000	22
309.000	27
310.000	27
311.000	32
312.000	36
313.000	39
314.000	42
315.000	56
316.000	67
317.000	82
318.000	109
319.000	131
320.000	161
321.000	193
322.000	218
323.000	248
324.000	261
325.000	265
326.000	256
327.000	225
328.000	194
329.000	170
330.000	129
331.000	102
332.000	78
333.000	58
334.000	42
335.000	37
336.000	34
337.000	30
338.000	35
339.000	37
340.000	40
341.000	47
342.000	57
343.000	74
344.000	92
345.000	135
346.000	188
347.000	274
348.000	430
349.000	692
350.000	1069
351.000	1674
352.000	2555
353.000	3707
354.000	5286
355.000	7292
356.000	9514
357.000	11859
358.000	14268
359.000	16286
360.000	17797
361.000	18502
362.000	18377
363.000	17430
364.000	15885
365.000	13666
366.000	11185
367.000	8837
368.000	6652
369.000	4725
370.000	3289
371.000	2147
372.000	1373
373.000	837
374.000	511
375.000	321
376.000	217
377.000	159
378.000	154
379.000	169
380.000	196
381.000	249
382.000	340
383.000	475
384.000	633
385.000	829
386.000	1108
387.000	1407
388.000	1729
389.000	2035
390.000	2351
391.000	2587
392.000	2714
393.000	2764
394.000	2699
395.000	2495
396.000	2220
397.000	1873
398.000	1578
399.000	1223
400.000	920
401.000	657
402.000	452
403.000	301
404.000	200
405.000	119
406.000	79
407.000	48
408.000	30
409.000	16
410.000	11
411.000	11
412.000	9
413.000	8
414.000	7
415.000	8
416.000	8
417.000	7
418.000	7
419.000	6
420.000	8
421.000	7
422.000	8
423.000	8
424.000	7
425.000	8
426.000	11
427.000	11
428.000	14
429.000	18
430.000	25
431.000	34
432.000	42
433.000	58
434.000	75
435.000	93
436.000	110
437.000	134
438.000	159
439.000	177
440.000	182
441.000	187
442.000	185
443.000	170
444.000	155
445.000	138
446.000	121
447.000	99
448.000	83
449.000	63
450.000	53
451.000	44
452.000	39
453.000	37
454.000	31
455.000	26
456.000	24
457.000	26
458.000	24
459.000	19
460.000	20
461.000	16
462.000	17
463.000	13
464.000	15
465.000	14
466.000	13
467.000	14
468.000	14
469.000	16
470.000	14
471.000	17
472.000	19
473.000	21
474.000	23
475.000	24
476.000	28
477.000	30
478.000	30
479.000	38
480.000	43
481.000	44
482.000	45
483.000	46
484.000	42
485.000	39
486.000	38
487.000	36
488.000	31
489.000	28
490.000	23
491.000	21
492.000	19
493.000	15
494.000	16
495.000	15
496.000	13
497.000	12
498.000	13
499.000	13
500.000	13
501.000	16
502.000	14
503.000	16
504.000	15
505.000	15
506.000	16
507.000	16
508.000	17
509.000	17
510.000	15
511.000	18
512.000	20
513.000	19
514.000	19
515.000	22
516.000	21
517.000	21
518.000	20
519.000	27
520.000	25
521.000	26
522.000	26
523.000	31
524.000	33
525.000	35
526.000	35
527.000	38
528.000	39
529.000	39
530.000	38
531.000	36
532.000	36
533.000	33
534.000	29
535.000	29
536.000	27
537.000	25
538.000	24
539.000	19
540.000	19
541.000	21
542.000	18
543.000	18
544.000	19
545.000	21
546.000	22
547.000	20
548.000	19
549.000	18
550.000	19
551.000	21
552.000	19
553.000	20
554.000	17
555.000	24
556.000	24
557.000	19
558.000	23
559.000	26
560.000	25
561.000	26
562.000	29
563.000	28
564.000	33
565.000	34
566.000	42
567.000	44
568.000	54
569.000	61
570.000	67
571.000	74
572.000	86
573.000	95
574.000	95
575.000	102
576.000	104
577.000	101
578.000	100
579.000	95
580.000	93
581.000	78
582.000	68
583.000	64
584.000	56
585.000	52
586.000	44
587.000	41
588.000	36
589.000	31
590.000	27
591.000	27
592.000	29
593.000	28
594.000	30
595.000	26
596.000	28
597.000	29
598.000	30
599.000	27
600.000	33
601.000	33
602.000	35
603.000	34
604.000	39
605.000	48
606.000	53
607.000	64
608.000	88
609.000	118
610.000	165
611.000	231
612.000	323
613.000	457
614.000	626
615.000	850
616.000	1109
617.000	1454
618.000	1781
619.000	2198
620.000	2597
621.000	3013
622.000	3400
623.000	3691
624.000	3872
625.000	3985
626.000	3956
627.000	3781
628.000	3576
629.000	3247
630.000	2895
631.000	2462
632.000	2064
633.000	1671
634.000	1323
635.000	1018
636.000	754
637.000	563
638.000	408
639.000	297
640.000	215
641.000	156
642.000	117
643.000	94
644.000	76
645.000	64
646.000	60
647.000	58
648.000	55
649.000	54
650.000	46
651.000	50
652.000	52
653.000	49
654.000	48
655.000	52
656.000	49
657.000	50
658.000	54
659.000	48
660.000	49
661.000	48
662.000	52
663.000	52
664.000	53
665.000	56
666.000	61
667.000	56
668.000	60
669.000	63
670.000	71
671.000	73
672.000	78
673.000	89
674.000	98
675.000	116
676.000	132
677.000	157
678.000	188
679.000	221
680.000	266
681.000	323
682.000	377
683.000	422
684.000	498
685.000	551
686.000	603
687.000	639
688.000	689
689.000	705
690.000	660
691.000	641
692.000	610
693.000	570
694.000	512
695.000	441
696.000	382
697.000	325
698.000	270
699.000	219
700.000	180
701.000	150
702.000	122
703.000	99
704.000	86
705.000	78
706.000	73
707.000	60
708.000	57
709.000	55
710.000	63
711.000	53
712.000	54
713.000	54
714.000	56
715.000	65
716.000	62
717.000	67
718.000	65
719.000	68
720.000	74
721.000	71
722.000	72
723.000	76
724.000	82
725.000	80
726.000	83
727.000	83
728.000	82
729.000	87
730.000	74
731.000	84
732.000	84
733.000	81
734.000	79
735.000	77
736.000	70
737.000	72
738.000	68
739.000	64
740.000	65
741.000	61
742.000	61
743.000	61
744.000	61
745.000	66
746.000	63
747.000	60
748.000	60
749.000	67
750.000	65
751.000	59
752.000	63
753.000	63
754.000	64
755.000	63
756.000	61
757.000	65
758.000	68
759.000	62
760.000	63
761.000	63
762.000	64
763.000	63
764.000	64
765.000	67
766.000	67
767.000	60
768.000	70
769.000	72
770.000	72
771.000	70
772.000	70
773.000	75
774.000	78
775.000	75
776.000	81
777.000	81
778.000	90
779.000	89
780.000	94
781.000	97
782.000	101
783.000	111
784.000	109
785.000	114
786.000	116
787.000	118
788.000	119
789.000	120
790.000	129
791.000	121
792.000	128
793.000	128
794.000	124
795.000	126
796.000	128
797.000	124
798.000	130
799.000	135
800.000	132
801.000	125
802.000	131
803.000	128
804.000	131
805.000	140
806.000	145
807.000	147
808.000	153
809.000	168
810.000	170
811.000	194
812.000	199
813.000	211
814.000	220
815.000	227
816.000	239
817.000	256
818.000	255
819.000	261
820.000	265
821.000	257
822.000	241
823.000	238
824.000	222
825.000	220
826.000	202
827.000	186
828.000	176
829.000	165
830.000	145
831.000	139
832.000	122
833.000	126
834.000	118
835.000	117
836.000	109
837.000	118
838.000	113
839.000	116
840.000	110
841.000	119
842.000	107
843.000	114
844.000	120
845.000	115
846.000	117
847.000	115
848.000	114
849.000	112
850.000	112
851.000	106
852.000	110
853.000	110
854.000	107
855.000	112
856.000	107
857.000	113
858.000	99
859.000	109
860.000	103
861.000	105
862.000	105
863.000	107
864.000	107
865.000	106
866.000	110
867.000	114
868.000	104
869.000	107
870.000	106
871.000	113
872.000	112
873.000	105
874.000	106
875.000	107
876.000	109
877.000	107
878.000	108
879.000	109
880.000	109
881.000	105
882.000	107
883.000	110
884.000	103
885.000	111
886.000	110
887.000	115
888.000	116
889.000	110
890.000	109
891.000	112
892.000	115
893.000	110
894.000	124
895.000	120
896.000	118
897.000	125
898.000	127
899.000	119
900.000	126
901.000	136
902.000	136
903.000	131
904.000	133
905.000	135
906.000	136
907.000	141
908.000	143
909.000	144
910.000	146
911.000	153
912.000	149
913.000	150
914.000	153
915.000	156
916.000	149
917.000	158
918.000	160
919.000	163
920.000	161
921.000	163
922.000	167
923.000	159
924.000	160
925.000	168
926.000	172
927.000	171
928.000	169
929.000	178
930.000	183
931.000	184
932.000	198
933.000	191
934.000	196
935.000	205
936.000	203
937.000	223
938.000	226
939.000	228
940.000	234
941.000	240
942.000	243
943.000	243
944.000	249
945.000	238
946.000	234
947.000	233
948.000	230
949.000	221
950.000	216
951.000	211
952.000	200
953.000	190
954.000	182
955.000	174
956.000	173
957.000	170
958.000	171
959.000	169
960.000	163
961.000	160
962.000	171
963.000	164
964.000	161
965.000	168
966.000	162
967.000	166
968.000	169
969.000	178
970.000	178
971.000	169
972.000	172
973.000	175
974.000	177
975.000	163
976.000	157
977.000	162
978.000	167
979.000	154
980.000	154
981.000	155
982.000	151
983.000	153
984.000	140
985.000	144
986.000	141
987.000	146
988.000	138
989.000	138
990.000	130
991.000	132
992.000	136
993.000	134
994.000	126
995.000	131
996.000	136
997.000	130
998.000	135
999.000	120
1000.000	124
1001.000	125
1002.000	127
1003.000	130
1004.000	131
1005.000	131
1006.000	124
1007.000	122
1008.000	121
1009.000	120
1010.000	130
1011.000	128
1012.000	121
1013.000	121
1014.000	126
1015.000	135
1016.000	127
1017.000	125
1018.000	126
1019.000	125
1020.000	135
1021.000	127
1022.000	127
1023.000	131
1024.000	126
1025.000	134
1026.000	123
1027.000	134
1028.000	132
1029.000	137
1030.000	134
1031.000	132
1032.000	131
1033.000	133
1034.000	129
1035.000	135
1036.000	134
1037.000	139
1038.000	138
1039.000	138
1040.000	135
1041.000	135
1042.000	139
1043.000	140
1044.000	135
1045.000	136
1046.000	136
1047.000	140
1048.000	145
1049.000	144
1050.000	145
1051.000	144
1052.000	139
1053.000	146
1054.000	146
1055.000	138
1056.000	149
1057.000	145
1058.000	145
1059.000	151
1060.000	150
1061.000	154
1062.000	150
1063.000	148
1064.000	155
1065.000	154
1066.000	143
1067.000	151
1068.000	152
1069.000	153
1070.000	148
1071.000	147
1072.000	152
1073.000	142
1074.000	152
1075.000	150
1076.000	147
1077.000	142
1078.000	149
1079.000	139
1080.000	148
1081.000	144
1082.000	149
1083.000	154
1084.000	158
1085.000	154
1086.000	153
1087.000	150
1088.000	151
1089.000	146
1090.000	158
1091.000	152
1092.000	165
1093.000	161
1094.000	159
1095.000	158
1096.000	162
1097.000	162
1098.000	163
1099.000	166
1100.000	167
1101.000	164
1102.000	156
1103.000	165
1104.000	162
1105.000	168
1106.000	165
1107.000	161
1108.000	165
1109.000	163
1110.000	156
1111.000	167
1112.000	156
1113.000	155
1114.000	156
1115.000	153
1116.000	150
1117.000	148
1118.000	147
1119.000	147
1120.000	146
1121.000	147
1122.000	153
1123.000	155
1124.000	156
1125.000	151
1126.000	149
1127.000	152
1128.000	158
1129.000	148
1130.000	153
1131.000	159
1132.000	163
1133.000	157
1134.000	151
1135.000	155
1136.000	164
1137.000	161
1138.000	156
1139.000	149
1140.000	164
1141.000	159
1142.000	162
1143.000	155
1144.000	157
1145.000	159
1146.000	156
1147.000	162
1148.000	161
1149.000	157
1150.000	164
1151.000	161
1152.000	171
1153.000	165
1154.000	163
1155.000	173
1156.000	165
1157.000	180
1158.000	172
1159.000	178
1160.000	177
1161.000	178
1162.000	178
1163.000	183
1164.000	177
1165.000	173
1166.000	175
1167.000	172
1168.000	172
1169.000	170
1170.000	171
1171.000	169
1172.000	159
1173.000	166
1174.000	157
1175.000	156
1176.000	156
1177.000	154
1178.000	156
1179.000	153
1180.000	151
1181.000	153
1182.000	154
1183.000	155
1184.000	154
1185.000	152
1186.000	158
1187.000	150
1188.000	152
1189.000	153
1190.000	148
1191.000	152
1192.000	152
1193.000	151
1194.000	153
1195.000	152
1196.000	149
1197.000	155
1198.000	160
1199.000	154
1200.000	160
1201.000	155
1202.000	155
1203.000	155
1204.000	152
1205.000	158
1206.000	157
1207.000	148
1208.000	158
1209.000	157
1210.000	152
1211.000	159
1212.000	149
1213.000	157
1214.000	157
1215.000	155
1216.000	153
1217.000	155
1218.000	160
1219.000	164
1220.000	164
1221.000	158
1222.000	157
1223.000	161
1224.000	156
1225.000	160
1226.000	161
1227.000	168
1228.000	161
1229.000	160
1230.000	164
1231.000	166
1232.000	165
1233.000	162
1234.000	163
1235.000	163
1236.000	160
1237.000	168
1238.000	165
1239.000	164
1240.000	160
1241.000	165
1242.000	159
1243.000	161
1244.000	167
1245.000	166
1246.000	157
1247.000	165
1248.000	164
1249.000	162
1250.000	164
1251.000	162
1252.000	159
1253.000	163
1254.000	160
1255.000	164
1256.000	159
1257.000	157
1258.000	164
1259.000	162
1260.000	165
1261.000	154
1262.000	163
1263.000	164
1264.000	157
1265.000	162
1266.000	162
1267.000	164
1268.000	156
1269.000	167
1270.000	162
1271.000	165
1272.000	162
1273.000	155
1274.000	160
1275.000	158
1276.000	160
1277.000	159
1278.000	165
1279.000	152
1280.000	158
1281.000	158
1282.000	164
1283.000	161
1284.000	164
1285.000	159
1286.000	163
1287.000	162
1288.000	167
1289.000	171
1290.000	165
1291.000	171
1292.000	168
1293.000	161
1294.000	171
1295.000	176
1296.000	175
1297.000	179
1298.000	169
1299.000	179
1300.000	173
1301.000	179
1302.000	182
1303.000	183
1304.000	180
1305.000	191
1306.000	178
1307.000	183
1308.000	177
1309.000	176
1310.000	174
1311.000	176
1312.000	182
1313.000	175
1314.000	174
1315.000	174
1316.000	173
1317.000	166
1318.000	171
1319.000	170
1320.000	169
1321.000	175
1322.000	167
1323.000	164
1324.000	164
1325.000	163
1326.000	161
1327.000	169
1328.000	166
1329.000	173
1330.000	172
1331.000	168
1332.000	169
1333.000	170
1334.000	176
1335.000	164
1336.000	174
1337.000	172
1338.000	166
1339.000	180
1340.000	167
1341.000	167
1342.000	168
1343.000	172
1344.000	172
1345.000	166
1346.000	171
1347.000	166
1348.000	171
1349.000	187
1350.000	170
1351.000	176
1352.000	178
1353.000	182
1354.000	176
1355.000	190
1356.000	192
1357.000	197
1358.000	209
1359.000	217
1360.000	235
1361.000	254
1362.000	267
1363.000	301
1364.000	338
1365.000	356
1366.000	400
1367.000	429
1368.000	477
1369.000	523
1370.000	573
1371.000	623
1372.000	671
1373.000	718
1374.000	754
1375.000	817
1376.000	832
1377.000	863
1378.000	886
1379.000	891
1380.000	898
1381.000	888
1382.000	880
1383.000	856
1384.000	802
1385.000	784
1386.000	728
1387.000	672
1388.000	629
1389.000	577
1390.000	536
1391.000	472
1392.000	432
1393.000	387
1394.000	362
1395.000	323
1396.000	286
1397.000	269
1398.000	246
1399.000	229
1400.000	205
1401.000	200
1402.000	186
1403.000	181
1404.000	182
1405.000	186
1406.000	179
1407.000	173
1408.000	164
1409.000	163
1410.000	164
1411.000	162
1412.000	166
1413.000	173
1414.000	164
1415.000	169
1416.000	169
1417.000	171
1418.000	167
1419.000	165
1420.000	164
1421.000	165
1422.000	164
1423.000	160
1424.000	169
1425.000	161
1426.000	168
1427.000	163
1428.000	167
1429.000	166
1430.000	166
1431.000	169
1432.000	166
1433.000	173
1434.000	169
1435.000	174
1436.000	162
1437.000	166
1438.000	173
1439.000	169
1440.000	172
1441.000	165
1442.000	173
1443.000	170
1444.000	172
1445.000	171
1446.000	171
1447.000	169
1448.000	176
1449.000	172
1450.000	180
1451.000	177
1452.000	179
1453.000	173
1454.000	183
1455.000	183
1456.000	180
1457.000	186
1458.000	175
1459.000	186
1460.000	177
1461.000	188
1462.000	182
1463.000	170
1464.000	184
1465.000	181
1466.000	178
1467.000	173
1468.000	171
1469.000	175
1470.000	172
1471.000	180
1472.000	178
1473.000	177
1474.000	173
1475.000	171
1476.000	176
1477.000	174
1478.000	163
1479.000	181
1480.000	178
1481.000	176
1482.000	174
1483.000	174
1484.000	170
1485.000	171
1486.000	180
1487.000	176
1488.000	176
1489.000	170
1490.000	162
1491.000	179
1492.000	176
1493.000	177
1494.000	178
1495.000	178
1496.000	178
1497.000	178
1498.000	177
1499.000	177
1500.000	175
1501.000	175
1502.000	172
1503.000	172
1504.000	172
1505.000	178
1506.000	172
1507.000	179
1508.000	175
1509.000	178
1510.000	178
1511.000	175
1512.000	176
1513.000	188
1514.000	184
1515.000	181
1516.000	175
1517.000	189
1518.000	186
1519.000	186
1520.000	190
1521.000	195
1522.000	202
1523.000	203
1524.000	202
1525.000	199
1526.000	207
1527.000	216
1528.000	220
1529.000	223
1530.000	238
1531.000	236
1532.000	246
1533.000	259
1534.000	268
1535.000	281
1536.000	283
1537.000	294
1538.000	300
1539.000	315
1540.000	321
1541.000	321
1542.000	328
1543.000	332
1544.000	337
1545.000	340
1546.000	327
1547.000	332
1548.000	322
1549.000	319
1550.000	307
1551.000	310
1552.000	285
1553.000	282
1554.000	300
1555.000	278
1556.000	281
1557.000	265
1558.000	275
1559.000	268
1560.000	269
1561.000	258
1562.000	264
1563.000	258
1564.000	269
1565.000	266
1566.000	268
1567.000	273
1568.000	286
1569.000	288
1570.000	293
1571.000	288
1572.000	297
1573.000	293
1574.000	319
1575.000	331
1576.000	334
1577.000	335
1578.000	337
1579.000	349
1580.000	362
1581.000	369
1582.000	374
1583.000	385
1584.000	391
1585.000	412
1586.000	422
1587.000	428
1588.000	441
1589.000	456
1590.000	465
1591.000	486
1592.000	478
1593.000	500
1594.000	515
1595.000	516
1596.000	533
1597.000	537
1598.000	550
1599.000	562
1600.000	561
1601.000	568
1602.000	580
1603.000	585
1604.000	586
1605.000	591
1606.000	591
1607.000	597
1608.000	597
1609.000	594
1610.000	587
1611.000	600
1612.000	592
1613.000	584
1614.000	596
1615.000	578
1616.000	573
1617.000	564
1618.000	561
1619.000	567
1620.000	542
1621.000	540
1622.000	530
1623.000	522
1624.000	510
1625.000	496
1626.000	479
1627.000	475
1628.000	453
1629.000	438
1630.000	446
1631.000	416
1632.000	417
1633.000	412
1634.000	392
1635.000	380
1636.000	363
1637.000	361
1638.000	343
1639.000	339
1640.000	326
1641.000	319
1642.000	303
1643.000	296
1644.000	290
1645.000	289
1646.000	275
1647.000	262
1648.000	263
1649.000	251
1650.000	246
1651.000	239
1652.000	227
1653.000	227
1654.000	230
1655.000	225
1656.000	213
1657.000	210
1658.000	202
1659.000	203
1660.000	199
1661.000	192
1662.000	195
1663.000	188
1664.000	190
1665.000	188
1666.000	185
1667.000	178
1668.000	185
1669.000	178
1670.000	187
1671.000	173
1672.000	177
1673.000	183
1674.000	183
1675.000	181
1676.000	184
1677.000	193
1678.000	199
1679.000	201
1680.000	209
1681.000	223
1682.000	230
1683.000	235
1684.000	262
1685.000	277
1686.000	296
1687.000	301
1688.000	331
1689.000	358
1690.000	375
1691.000	391
1692.000	413
1693.000	425
1694.000	453
1695.000	478
1696.000	501
1697.000	529
1698.000	514
1699.000	530
1700.000	547
1701.000	549
1702.000	550
1703.000	528
1704.000	530
1705.000	530
1706.000	498
1707.000	497
1708.000	470
1709.000	432
1710.000	424
1711.000	403
1712.000	378
1713.000	360
1714.000	338
1715.000	307
1716.000	283
1717.000	267
1718.000	248
1719.000	236
1720.000	212
1721.000	197
1722.000	192
1723.000	183
1724.000	167
1725.000	164
1726.000	156
1727.000	151
1728.000	145
1729.000	143
1730.000	145
1731.000	141
1732.000	141
1733.000	142
1734.000	140
1735.000	145
1736.000	143
1737.000	133
1738.000	141
1739.000	144
1740.000	146
1741.000	138
1742.000	136
1743.000	138
1744.000	134
1745.000	136
1746.000	134
1747.000	138
1748.000	143
1749.000	135
1750.000	145
1751.000	144
1752.000	148
1753.000	144
1754.000	147
1755.000	136
1756.000	143
1757.000	144
1758.000	146
1759.000	151
1760.000	156
1761.000	149
1762.000	154
1763.000	152
1764.000	149
1765.000	153
1766.000	156
1767.000	158
1768.000	158
1769.000	163
1770.000	157
1771.000	168
1772.000	169
1773.000	175
1774.000	167
1775.000	171
1776.000	168
1777.000	176
1778.000	175
1779.000	184
1780.000	177
1781.000	185
1782.000	188
1783.000	185
1784.000	194
1785.000	185
1786.000	187
1787.000	192
1788.000	189
1789.000	190
1790.000	201
1791.000	191
1792.000	191
1793.000	190
1794.000	196
1795.000	187
1796.000	187
1797.000	191
1798.000	191
1799.000	190
1800.000	193
1801.000	191
1802.000	192
1803.000	181
1804.000	180
1805.000	187
1806.000	188
1807.000	182
1808.000	180
1809.000	181
1810.000	171
1811.000	169
1812.000	168
1813.000	170
1814.000	168
1815.000	166
1816.000	160
1817.000	160
1818.000	164
1819.000	154
1820.000	154
1821.000	154
1822.000	152
1823.000	153
1824.000	146
1825.000	144
1826.000	141
1827.000	138
1828.000	138
1829.000	134
1830.000	133
1831.000	136
1832.000	128
1833.000	126
1834.000	128
1835.000	117
1836.000	115
1837.000	114
1838.000	119
1839.000	113
1840.000	116
1841.000	115
1842.000	106
1843.000	108
1844.000	107
1845.000	107
1846.000	96
1847.000	100
1848.000	99
1849.000	96
1850.000	98
1851.000	90
1852.000	95
1853.000	96
1854.000	95
1855.000	96
1856.000	90
1857.000	95
1858.000	90
1859.000	90
1860.000	85
1861.000	84
1862.000	85
1863.000	86
1864.000	81
1865.000	84
1866.000	84
1867.000	81
1868.000	84
1869.000	79
1870.000	77
1871.000	81
1872.000	76
1873.000	76
1874.000	83
1875.000	75
1876.000	73
1877.000	75
1878.000	77
1879.000	69
1880.000	74
1881.000	75
1882.000	74
1883.000	75
1884.000	74
1885.000	76
1886.000	77
1887.000	76
1888.000	76
1889.000	72
1890.000	73
1891.000	78
1892.000	75
1893.000	81
1894.000	83
1895.000	81
1896.000	87
1897.000	83
1898.000	85
1899.000	86
1900.000	100
1901.000	98
1902.000	107
1903.000	107
1904.000	105
1905.000	110
1906.000	114
1907.000	125
1908.000	126
1909.000	113
1910.000	117
1911.000	120
1912.000	124
1913.000	122
1914.000	115
1915.000	120
1916.000	113
1917.000	119
1918.000	110
1919.000	107
1920.000	103
1921.000	98
1922.000	98
1923.000	96
1924.000	91
1925.000	85
1926.000	83
1927.000	85
1928.000	80
1929.000	76
1930.000	70
1931.000	74
1932.000	66
1933.000	67
1934.000	67
1935.000	69
1936.000	69
1937.000	66
1938.000	63
1939.000	70
1940.000	68
1941.000	69
1942.000	65
1943.000	70
1944.000	69
1945.000	64
1946.000	66
1947.000	65
1948.000	66
1949.000	65
1950.000	67
1951.000	60
1952.000	65
1953.000	64
1954.000	63
1955.000	54
1956.000	54
1957.000	57
1958.000	58
1959.000	55
1960.000	57
1961.000	56
1962.000	57
1963.000	55
1964.000	50
1965.000	53
1966.000	54
1967.000	53
1968.000	52
1969.000	52
1970.000	48
1971.000	50
1972.000	51
1973.000	53
1974.000	51
1975.000	53
1976.000	50
1977.000	52
1978.000	53
1979.000	50
1980.000	53
1981.000	49
1982.000	51
1983.000	50
1984.000	46
1985.000	52
1986.000	50
1987.000	49
1988.000	46
1989.000	52
1990.000	50
1991.000	47
1992.000	48
1993.000	50
1994.000	50
1995.000	45
1996.000	51
1997.000	55
1998.000	49
1999.000	47
2000.000	48
2001.000	49
2002.000	49
2003.000	49
2004.000	50
2005.000	48
2006.000	47
2007.000	50
2008.000	48
2009.000	52
2010.000	48
2011.000	47
2012.000	47
2013.000	49
2014.000	49
2015.000	44
2016.000	51
2017.000	46
2018.000	44
2019.000	45
2020.000	49
2021.000	48
2022.000	48
2023.000	48
2024.000	47
2025.000	46
2026.000	46
2027.000	47
2028.000	47
2029.000	46
2030.000	47
2031.000	50
2032.000	48
2033.000	48
2034.000	44
2035.000	49
2036.000	46
2037.000	49
2038.000	47
2039.000	45
2040.000	44
2041.000	46
2042.000	42
2043.000	46
2044.000	48
2045.000	44
2046.000	43
2047.000	48
2048.000	0
