Date:	23-Sep-20		Time:	11:32 PM		Version no:	0.00		Project name:	55		Sample name:	222		Section name:	section		Position	0.000000	mm	E0	0.000000	keV	E1	1.000000	keV/channel	sample surface	2.000000	cm	Tube anode:	Mo		Tube voltage:	30	kV	Tube current:	30	mA	gain	15		std. database			resultfile	result		matrix element	11		sample thickness	1.000000		air passage	0.560000	cm	comments	not in position		peaking_time	0.300000	m-sec	trigger_threshold	40.000000	V	mca_bin_width	2.000000	no:	number_mca_channels	2048.000000	no:	gap_time	2048.000000	m-sec	trigger_peaking_time	2048.000000	m-sec	GAINDAC	400		HIGHGAIN	400		TAURC	400		RCTAU	400		RCTAUFRAC	400		livetime	13.334824	seconds	runtime	15.000351	seconds	input_count_rate	47769.585089	cps	output_count_rate	42465.604889	cps	triggers	704307	seconds	events_in_run	618783	seconds	channel	content		1.000	0
2.000	0
3.000	0
4.000	0
5.000	0
6.000	0
7.000	0
8.000	0
9.000	0
10.000	0
11.000	0
12.000	0
13.000	0
14.000	0
15.000	0
16.000	0
17.000	0
18.000	0
19.000	0
20.000	0
21.000	0
22.000	0
23.000	0
24.000	0
25.000	0
26.000	0
27.000	0
28.000	0
29.000	0
30.000	0
31.000	0
32.000	1
33.000	1
34.000	0
35.000	0
36.000	0
37.000	0
38.000	0
39.000	1
40.000	0
41.000	0
42.000	1
43.000	0
44.000	0
45.000	0
46.000	1
47.000	1
48.000	1
49.000	1
50.000	2
51.000	1
52.000	2
53.000	3
54.000	3
55.000	4
56.000	5
57.000	9
58.000	14
59.000	20
60.000	25
61.000	28
62.000	29
63.000	29
64.000	31
65.000	34
66.000	28
67.000	28
68.000	31
69.000	27
70.000	27
71.000	27
72.000	28
73.000	25
74.000	25
75.000	21
76.000	24
77.000	26
78.000	23
79.000	26
80.000	24
81.000	25
82.000	27
83.000	25
84.000	25
85.000	21
86.000	27
87.000	25
88.000	22
89.000	24
90.000	23
91.000	22
92.000	23
93.000	22
94.000	22
95.000	25
96.000	21
97.000	22
98.000	23
99.000	23
100.000	20
101.000	21
102.000	21
103.000	20
104.000	23
105.000	21
106.000	19
107.000	19
108.000	22
109.000	20
110.000	18
111.000	18
112.000	18
113.000	17
114.000	20
115.000	17
116.000	19
117.000	17
118.000	17
119.000	19
120.000	17
121.000	19
122.000	17
123.000	18
124.000	16
125.000	17
126.000	15
127.000	18
128.000	17
129.000	15
130.000	15
131.000	15
132.000	16
133.000	16
134.000	17
135.000	16
136.000	15
137.000	16
138.000	15
139.000	16
140.000	20
141.000	20
142.000	21
143.000	27
144.000	25
145.000	29
146.000	26
147.000	22
148.000	26
149.000	24
150.000	24
151.000	20
152.000	22
153.000	18
154.000	19
155.000	16
156.000	16
157.000	15
158.000	16
159.000	13
160.000	15
161.000	16
162.000	16
163.000	18
164.000	21
165.000	24
166.000	29
167.000	36
168.000	44
169.000	46
170.000	54
171.000	53
172.000	52
173.000	52
174.000	39
175.000	38
176.000	33
177.000	30
178.000	29
179.000	29
180.000	36
181.000	38
182.000	47
183.000	58
184.000	76
185.000	108
186.000	133
187.000	172
188.000	211
189.000	246
190.000	267
191.000	287
192.000	267
193.000	244
194.000	206
195.000	170
196.000	119
197.000	91
198.000	61
199.000	43
200.000	33
201.000	21
202.000	16
203.000	18
204.000	17
205.000	15
206.000	18
207.000	16
208.000	19
209.000	18
210.000	18
211.000	18
212.000	19
213.000	20
214.000	24
215.000	23
216.000	28
217.000	27
218.000	36
219.000	41
220.000	45
221.000	47
222.000	52
223.000	54
224.000	52
225.000	46
226.000	44
227.000	40
228.000	34
229.000	26
230.000	25
231.000	21
232.000	20
233.000	16
234.000	16
235.000	15
236.000	15
237.000	14
238.000	14
239.000	13
240.000	15
241.000	14
242.000	14
243.000	15
244.000	18
245.000	17
246.000	21
247.000	23
248.000	30
249.000	39
250.000	57
251.000	73
252.000	95
253.000	117
254.000	149
255.000	154
256.000	171
257.000	184
258.000	181
259.000	161
260.000	146
261.000	112
262.000	102
263.000	73
264.000	57
265.000	40
266.000	33
267.000	25
268.000	24
269.000	23
270.000	28
271.000	29
272.000	32
273.000	29
274.000	28
275.000	39
276.000	34
277.000	33
278.000	33
279.000	34
280.000	33
281.000	34
282.000	36
283.000	39
284.000	46
285.000	51
286.000	63
287.000	74
288.000	81
289.000	81
290.000	84
291.000	86
292.000	78
293.000	68
294.000	61
295.000	52
296.000	41
297.000	37
298.000	31
299.000	30
300.000	27
301.000	24
302.000	24
303.000	24
304.000	24
305.000	27
306.000	28
307.000	30
308.000	35
309.000	32
310.000	33
311.000	37
312.000	43
313.000	42
314.000	49
315.000	63
316.000	73
317.000	98
318.000	114
319.000	141
320.000	181
321.000	212
322.000	241
323.000	268
324.000	270
325.000	277
326.000	260
327.000	249
328.000	208
329.000	174
330.000	137
331.000	110
332.000	81
333.000	64
334.000	52
335.000	42
336.000	39
337.000	40
338.000	41
339.000	45
340.000	46
341.000	54
342.000	68
343.000	86
344.000	115
345.000	159
346.000	233
347.000	336
348.000	530
349.000	832
350.000	1315
351.000	2047
352.000	3148
353.000	4590
354.000	6505
355.000	8858
356.000	11680
357.000	14577
358.000	17444
359.000	19949
360.000	21799
361.000	22646
362.000	22445
363.000	21303
364.000	19367
365.000	16631
366.000	13736
367.000	10802
368.000	8077
369.000	5749
370.000	3979
371.000	2636
372.000	1658
373.000	1026
374.000	637
375.000	402
376.000	262
377.000	203
378.000	178
379.000	201
380.000	241
381.000	309
382.000	412
383.000	568
384.000	762
385.000	1010
386.000	1327
387.000	1722
388.000	2099
389.000	2503
390.000	2875
391.000	3166
392.000	3383
393.000	3370
394.000	3289
395.000	3069
396.000	2698
397.000	2296
398.000	1910
399.000	1471
400.000	1102
401.000	782
402.000	544
403.000	358
404.000	241
405.000	152
406.000	89
407.000	55
408.000	34
409.000	24
410.000	14
411.000	13
412.000	9
413.000	9
414.000	9
415.000	8
416.000	8
417.000	9
418.000	7
419.000	9
420.000	8
421.000	8
422.000	8
423.000	8
424.000	9
425.000	8
426.000	9
427.000	12
428.000	15
429.000	17
430.000	25
431.000	30
432.000	41
433.000	49
434.000	62
435.000	80
436.000	94
437.000	110
438.000	125
439.000	135
440.000	146
441.000	149
442.000	154
443.000	136
444.000	129
445.000	111
446.000	95
447.000	81
448.000	68
449.000	52
450.000	45
451.000	39
452.000	34
453.000	31
454.000	30
455.000	29
456.000	30
457.000	25
458.000	20
459.000	22
460.000	19
461.000	18
462.000	19
463.000	18
464.000	15
465.000	14
466.000	16
467.000	14
468.000	13
469.000	17
470.000	18
471.000	18
472.000	18
473.000	20
474.000	23
475.000	23
476.000	26
477.000	27
478.000	32
479.000	34
480.000	36
481.000	35
482.000	37
483.000	38
484.000	40
485.000	34
486.000	31
487.000	29
488.000	29
489.000	25
490.000	20
491.000	20
492.000	21
493.000	18
494.000	17
495.000	16
496.000	15
497.000	15
498.000	16
499.000	15
500.000	17
501.000	13
502.000	17
503.000	16
504.000	17
505.000	15
506.000	17
507.000	18
508.000	18
509.000	18
510.000	21
511.000	22
512.000	20
513.000	22
514.000	20
515.000	22
516.000	25
517.000	24
518.000	26
519.000	28
520.000	27
521.000	30
522.000	32
523.000	35
524.000	36
525.000	37
526.000	41
527.000	40
528.000	45
529.000	45
530.000	44
531.000	42
532.000	39
533.000	38
534.000	33
535.000	31
536.000	30
537.000	27
538.000	25
539.000	26
540.000	24
541.000	21
542.000	20
543.000	21
544.000	21
545.000	21
546.000	24
547.000	22
548.000	21
549.000	22
550.000	23
551.000	24
552.000	22
553.000	24
554.000	23
555.000	28
556.000	26
557.000	27
558.000	29
559.000	30
560.000	30
561.000	34
562.000	32
563.000	37
564.000	39
565.000	36
566.000	41
567.000	46
568.000	49
569.000	52
570.000	65
571.000	66
572.000	73
573.000	81
574.000	83
575.000	84
576.000	88
577.000	90
578.000	86
579.000	83
580.000	76
581.000	68
582.000	59
583.000	50
584.000	52
585.000	48
586.000	35
587.000	38
588.000	33
589.000	34
590.000	29
591.000	34
592.000	28
593.000	28
594.000	29
595.000	29
596.000	25
597.000	30
598.000	29
599.000	31
600.000	32
601.000	34
602.000	37
603.000	38
604.000	39
605.000	45
606.000	53
607.000	65
608.000	80
609.000	108
610.000	153
611.000	211
612.000	291
613.000	408
614.000	556
615.000	744
616.000	989
617.000	1275
618.000	1609
619.000	1938
620.000	2317
621.000	2652
622.000	2991
623.000	3208
624.000	3397
625.000	3476
626.000	3428
627.000	3319
628.000	3119
629.000	2804
630.000	2521
631.000	2138
632.000	1769
633.000	1452
634.000	1134
635.000	891
636.000	686
637.000	493
638.000	362
639.000	264
640.000	189
641.000	145
642.000	116
643.000	92
644.000	74
645.000	69
646.000	61
647.000	60
648.000	58
649.000	58
650.000	55
651.000	59
652.000	55
653.000	49
654.000	51
655.000	56
656.000	56
657.000	56
658.000	58
659.000	57
660.000	62
661.000	57
662.000	56
663.000	56
664.000	62
665.000	62
666.000	66
667.000	69
668.000	66
669.000	75
670.000	75
671.000	79
672.000	86
673.000	93
674.000	101
675.000	117
676.000	131
677.000	149
678.000	174
679.000	216
680.000	252
681.000	289
682.000	354
683.000	386
684.000	449
685.000	494
686.000	556
687.000	587
688.000	594
689.000	598
690.000	606
691.000	571
692.000	543
693.000	509
694.000	463
695.000	407
696.000	358
697.000	303
698.000	251
699.000	206
700.000	164
701.000	138
702.000	116
703.000	98
704.000	87
705.000	76
706.000	66
707.000	70
708.000	64
709.000	64
710.000	63
711.000	62
712.000	61
713.000	66
714.000	68
715.000	72
716.000	71
717.000	74
718.000	78
719.000	89
720.000	84
721.000	88
722.000	90
723.000	89
724.000	93
725.000	91
726.000	95
727.000	93
728.000	95
729.000	93
730.000	91
731.000	90
732.000	90
733.000	85
734.000	84
735.000	80
736.000	78
737.000	82
738.000	73
739.000	71
740.000	70
741.000	72
742.000	70
743.000	71
744.000	70
745.000	71
746.000	64
747.000	70
748.000	71
749.000	67
750.000	76
751.000	77
752.000	72
753.000	72
754.000	72
755.000	74
756.000	75
757.000	76
758.000	77
759.000	75
760.000	68
761.000	75
762.000	70
763.000	73
764.000	79
765.000	71
766.000	74
767.000	82
768.000	78
769.000	81
770.000	78
771.000	80
772.000	82
773.000	82
774.000	88
775.000	90
776.000	92
777.000	91
778.000	97
779.000	102
780.000	107
781.000	113
782.000	109
783.000	111
784.000	122
785.000	121
786.000	125
787.000	132
788.000	132
789.000	137
790.000	134
791.000	137
792.000	135
793.000	143
794.000	140
795.000	136
796.000	146
797.000	135
798.000	141
799.000	146
800.000	136
801.000	150
802.000	145
803.000	158
804.000	148
805.000	163
806.000	160
807.000	172
808.000	174
809.000	195
810.000	200
811.000	225
812.000	228
813.000	252
814.000	274
815.000	282
816.000	296
817.000	304
818.000	311
819.000	318
820.000	313
821.000	314
822.000	308
823.000	289
824.000	269
825.000	250
826.000	235
827.000	219
828.000	198
829.000	185
830.000	176
831.000	166
832.000	150
833.000	140
834.000	135
835.000	133
836.000	130
837.000	129
838.000	128
839.000	132
840.000	128
841.000	125
842.000	130
843.000	125
844.000	128
845.000	124
846.000	118
847.000	129
848.000	125
849.000	126
850.000	127
851.000	122
852.000	121
853.000	116
854.000	123
855.000	116
856.000	122
857.000	119
858.000	116
859.000	123
860.000	117
861.000	117
862.000	117
863.000	119
864.000	118
865.000	125
866.000	117
867.000	114
868.000	121
869.000	119
870.000	117
871.000	121
872.000	120
873.000	113
874.000	117
875.000	116
876.000	117
877.000	119
878.000	117
879.000	112
880.000	119
881.000	122
882.000	117
883.000	113
884.000	122
885.000	116
886.000	118
887.000	120
888.000	120
889.000	123
890.000	126
891.000	126
892.000	129
893.000	124
894.000	127
895.000	136
896.000	135
897.000	139
898.000	138
899.000	141
900.000	146
901.000	146
902.000	145
903.000	155
904.000	150
905.000	150
906.000	154
907.000	154
908.000	155
909.000	159
910.000	162
911.000	160
912.000	166
913.000	169
914.000	170
915.000	169
916.000	164
917.000	173
918.000	179
919.000	172
920.000	181
921.000	176
922.000	187
923.000	180
924.000	180
925.000	189
926.000	187
927.000	201
928.000	191
929.000	198
930.000	200
931.000	209
932.000	210
933.000	208
934.000	212
935.000	222
936.000	228
937.000	247
938.000	242
939.000	253
940.000	257
941.000	261
942.000	276
943.000	276
944.000	266
945.000	267
946.000	265
947.000	260
948.000	246
949.000	250
950.000	237
951.000	226
952.000	221
953.000	212
954.000	212
955.000	199
956.000	198
957.000	187
958.000	180
959.000	179
960.000	177
961.000	174
962.000	173
963.000	177
964.000	176
965.000	187
966.000	190
967.000	189
968.000	183
969.000	184
970.000	188
971.000	194
972.000	195
973.000	195
974.000	191
975.000	181
976.000	183
977.000	179
978.000	174
979.000	170
980.000	166
981.000	164
982.000	163
983.000	156
984.000	157
985.000	152
986.000	155
987.000	153
988.000	157
989.000	146
990.000	146
991.000	154
992.000	142
993.000	144
994.000	146
995.000	142
996.000	137
997.000	134
998.000	140
999.000	141
1000.000	136
1001.000	134
1002.000	128
1003.000	140
1004.000	129
1005.000	141
1006.000	136
1007.000	133
1008.000	137
1009.000	136
1010.000	135
1011.000	132
1012.000	135
1013.000	137
1014.000	141
1015.000	136
1016.000	140
1017.000	139
1018.000	137
1019.000	142
1020.000	135
1021.000	128
1022.000	144
1023.000	139
1024.000	144
1025.000	130
1026.000	142
1027.000	138
1028.000	133
1029.000	143
1030.000	142
1031.000	144
1032.000	149
1033.000	148
1034.000	142
1035.000	143
1036.000	144
1037.000	142
1038.000	148
1039.000	150
1040.000	152
1041.000	148
1042.000	147
1043.000	156
1044.000	149
1045.000	151
1046.000	152
1047.000	156
1048.000	150
1049.000	158
1050.000	161
1051.000	161
1052.000	159
1053.000	163
1054.000	155
1055.000	161
1056.000	155
1057.000	156
1058.000	160
1059.000	155
1060.000	162
1061.000	158
1062.000	153
1063.000	161
1064.000	160
1065.000	163
1066.000	164
1067.000	159
1068.000	167
1069.000	154
1070.000	162
1071.000	160
1072.000	168
1073.000	159
1074.000	159
1075.000	160
1076.000	163
1077.000	166
1078.000	154
1079.000	154
1080.000	154
1081.000	156
1082.000	163
1083.000	153
1084.000	157
1085.000	161
1086.000	161
1087.000	153
1088.000	160
1089.000	165
1090.000	163
1091.000	163
1092.000	165
1093.000	166
1094.000	165
1095.000	167
1096.000	170
1097.000	175
1098.000	180
1099.000	169
1100.000	180
1101.000	172
1102.000	175
1103.000	171
1104.000	171
1105.000	170
1106.000	169
1107.000	167
1108.000	172
1109.000	168
1110.000	166
1111.000	165
1112.000	165
1113.000	167
1114.000	168
1115.000	163
1116.000	166
1117.000	159
1118.000	157
1119.000	158
1120.000	161
1121.000	164
1122.000	158
1123.000	158
1124.000	163
1125.000	156
1126.000	165
1127.000	170
1128.000	168
1129.000	167
1130.000	162
1131.000	166
1132.000	162
1133.000	160
1134.000	170
1135.000	165
1136.000	169
1137.000	175
1138.000	165
1139.000	167
1140.000	163
1141.000	170
1142.000	168
1143.000	166
1144.000	169
1145.000	165
1146.000	165
1147.000	161
1148.000	167
1149.000	174
1150.000	164
1151.000	170
1152.000	172
1153.000	171
1154.000	176
1155.000	179
1156.000	177
1157.000	186
1158.000	187
1159.000	178
1160.000	182
1161.000	193
1162.000	185
1163.000	186
1164.000	181
1165.000	191
1166.000	186
1167.000	179
1168.000	176
1169.000	179
1170.000	180
1171.000	173
1172.000	168
1173.000	172
1174.000	175
1175.000	163
1176.000	163
1177.000	162
1178.000	166
1179.000	164
1180.000	158
1181.000	164
1182.000	161
1183.000	157
1184.000	160
1185.000	155
1186.000	162
1187.000	156
1188.000	164
1189.000	159
1190.000	159
1191.000	157
1192.000	162
1193.000	160
1194.000	166
1195.000	166
1196.000	163
1197.000	159
1198.000	169
1199.000	159
1200.000	159
1201.000	157
1202.000	167
1203.000	162
1204.000	160
1205.000	153
1206.000	164
1207.000	159
1208.000	172
1209.000	164
1210.000	163
1211.000	165
1212.000	167
1213.000	161
1214.000	172
1215.000	169
1216.000	167
1217.000	170
1218.000	162
1219.000	178
1220.000	170
1221.000	172
1222.000	166
1223.000	165
1224.000	173
1225.000	164
1226.000	172
1227.000	167
1228.000	160
1229.000	170
1230.000	170
1231.000	172
1232.000	178
1233.000	160
1234.000	171
1235.000	160
1236.000	171
1237.000	170
1238.000	178
1239.000	163
1240.000	170
1241.000	173
1242.000	174
1243.000	170
1244.000	163
1245.000	167
1246.000	166
1247.000	174
1248.000	170
1249.000	167
1250.000	163
1251.000	176
1252.000	173
1253.000	168
1254.000	167
1255.000	164
1256.000	167
1257.000	172
1258.000	179
1259.000	174
1260.000	167
1261.000	171
1262.000	169
1263.000	172
1264.000	163
1265.000	177
1266.000	162
1267.000	168
1268.000	165
1269.000	162
1270.000	165
1271.000	171
1272.000	170
1273.000	168
1274.000	169
1275.000	169
1276.000	171
1277.000	168
1278.000	173
1279.000	166
1280.000	169
1281.000	170
1282.000	167
1283.000	168
1284.000	174
1285.000	172
1286.000	174
1287.000	168
1288.000	173
1289.000	168
1290.000	172
1291.000	174
1292.000	181
1293.000	175
1294.000	176
1295.000	184
1296.000	179
1297.000	181
1298.000	177
1299.000	179
1300.000	186
1301.000	187
1302.000	184
1303.000	193
1304.000	187
1305.000	192
1306.000	180
1307.000	186
1308.000	186
1309.000	186
1310.000	182
1311.000	177
1312.000	178
1313.000	188
1314.000	183
1315.000	171
1316.000	173
1317.000	174
1318.000	167
1319.000	177
1320.000	174
1321.000	178
1322.000	176
1323.000	172
1324.000	171
1325.000	173
1326.000	174
1327.000	175
1328.000	174
1329.000	174
1330.000	170
1331.000	174
1332.000	170
1333.000	182
1334.000	175
1335.000	181
1336.000	173
1337.000	172
1338.000	175
1339.000	171
1340.000	181
1341.000	172
1342.000	172
1343.000	174
1344.000	177
1345.000	174
1346.000	173
1347.000	180
1348.000	180
1349.000	182
1350.000	180
1351.000	181
1352.000	180
1353.000	184
1354.000	187
1355.000	198
1356.000	202
1357.000	210
1358.000	229
1359.000	239
1360.000	251
1361.000	260
1362.000	290
1363.000	316
1364.000	361
1365.000	392
1366.000	443
1367.000	480
1368.000	535
1369.000	591
1370.000	638
1371.000	707
1372.000	763
1373.000	805
1374.000	879
1375.000	909
1376.000	950
1377.000	981
1378.000	1012
1379.000	1016
1380.000	1033
1381.000	1016
1382.000	992
1383.000	976
1384.000	908
1385.000	883
1386.000	827
1387.000	773
1388.000	713
1389.000	651
1390.000	583
1391.000	529
1392.000	462
1393.000	441
1394.000	379
1395.000	344
1396.000	319
1397.000	278
1398.000	264
1399.000	246
1400.000	223
1401.000	224
1402.000	193
1403.000	193
1404.000	193
1405.000	184
1406.000	178
1407.000	172
1408.000	174
1409.000	169
1410.000	170
1411.000	171
1412.000	168
1413.000	172
1414.000	171
1415.000	166
1416.000	167
1417.000	170
1418.000	168
1419.000	174
1420.000	171
1421.000	175
1422.000	168
1423.000	171
1424.000	167
1425.000	166
1426.000	176
1427.000	170
1428.000	165
1429.000	166
1430.000	173
1431.000	165
1432.000	164
1433.000	172
1434.000	181
1435.000	172
1436.000	170
1437.000	170
1438.000	167
1439.000	169
1440.000	174
1441.000	167
1442.000	171
1443.000	175
1444.000	171
1445.000	182
1446.000	178
1447.000	183
1448.000	176
1449.000	181
1450.000	179
1451.000	187
1452.000	174
1453.000	181
1454.000	181
1455.000	179
1456.000	186
1457.000	179
1458.000	186
1459.000	179
1460.000	181
1461.000	179
1462.000	180
1463.000	180
1464.000	184
1465.000	183
1466.000	183
1467.000	178
1468.000	183
1469.000	180
1470.000	180
1471.000	172
1472.000	184
1473.000	182
1474.000	176
1475.000	176
1476.000	179
1477.000	171
1478.000	176
1479.000	181
1480.000	174
1481.000	174
1482.000	177
1483.000	176
1484.000	182
1485.000	180
1486.000	177
1487.000	182
1488.000	178
1489.000	174
1490.000	178
1491.000	167
1492.000	180
1493.000	179
1494.000	183
1495.000	174
1496.000	177
1497.000	180
1498.000	176
1499.000	179
1500.000	177
1501.000	172
1502.000	174
1503.000	186
1504.000	180
1505.000	181
1506.000	178
1507.000	181
1508.000	181
1509.000	176
1510.000	181
1511.000	185
1512.000	181
1513.000	180
1514.000	189
1515.000	189
1516.000	181
1517.000	184
1518.000	187
1519.000	196
1520.000	191
1521.000	189
1522.000	194
1523.000	208
1524.000	209
1525.000	206
1526.000	210
1527.000	217
1528.000	226
1529.000	230
1530.000	246
1531.000	249
1532.000	248
1533.000	265
1534.000	280
1535.000	295
1536.000	301
1537.000	304
1538.000	313
1539.000	323
1540.000	337
1541.000	341
1542.000	348
1543.000	347
1544.000	360
1545.000	345
1546.000	351
1547.000	348
1548.000	333
1549.000	338
1550.000	335
1551.000	320
1552.000	311
1553.000	303
1554.000	297
1555.000	289
1556.000	281
1557.000	274
1558.000	279
1559.000	278
1560.000	269
1561.000	269
1562.000	277
1563.000	270
1564.000	278
1565.000	273
1566.000	279
1567.000	290
1568.000	296
1569.000	301
1570.000	304
1571.000	299
1572.000	321
1573.000	322
1574.000	318
1575.000	323
1576.000	339
1577.000	343
1578.000	349
1579.000	354
1580.000	371
1581.000	379
1582.000	384
1583.000	399
1584.000	409
1585.000	418
1586.000	419
1587.000	436
1588.000	454
1589.000	444
1590.000	467
1591.000	467
1592.000	495
1593.000	511
1594.000	520
1595.000	519
1596.000	531
1597.000	545
1598.000	558
1599.000	559
1600.000	564
1601.000	579
1602.000	567
1603.000	587
1604.000	582
1605.000	587
1606.000	597
1607.000	604
1608.000	590
1609.000	597
1610.000	604
1611.000	602
1612.000	596
1613.000	591
1614.000	579
1615.000	573
1616.000	567
1617.000	554
1618.000	550
1619.000	543
1620.000	542
1621.000	526
1622.000	510
1623.000	502
1624.000	500
1625.000	478
1626.000	472
1627.000	456
1628.000	459
1629.000	435
1630.000	419
1631.000	416
1632.000	403
1633.000	400
1634.000	388
1635.000	374
1636.000	361
1637.000	359
1638.000	344
1639.000	333
1640.000	327
1641.000	314
1642.000	297
1643.000	296
1644.000	287
1645.000	288
1646.000	273
1647.000	265
1648.000	262
1649.000	249
1650.000	251
1651.000	229
1652.000	229
1653.000	233
1654.000	226
1655.000	224
1656.000	213
1657.000	209
1658.000	205
1659.000	204
1660.000	202
1661.000	195
1662.000	195
1663.000	187
1664.000	187
1665.000	187
1666.000	178
1667.000	176
1668.000	182
1669.000	178
1670.000	180
1671.000	176
1672.000	188
1673.000	174
1674.000	183
1675.000	185
1676.000	188
1677.000	190
1678.000	196
1679.000	203
1680.000	220
1681.000	225
1682.000	233
1683.000	248
1684.000	271
1685.000	276
1686.000	297
1687.000	308
1688.000	337
1689.000	351
1690.000	387
1691.000	398
1692.000	429
1693.000	439
1694.000	463
1695.000	482
1696.000	516
1697.000	520
1698.000	521
1699.000	534
1700.000	546
1701.000	544
1702.000	541
1703.000	554
1704.000	542
1705.000	535
1706.000	521
1707.000	497
1708.000	476
1709.000	460
1710.000	423
1711.000	412
1712.000	384
1713.000	358
1714.000	327
1715.000	311
1716.000	275
1717.000	264
1718.000	245
1719.000	224
1720.000	209
1721.000	207
1722.000	194
1723.000	178
1724.000	173
1725.000	174
1726.000	155
1727.000	153
1728.000	150
1729.000	152
1730.000	142
1731.000	140
1732.000	140
1733.000	134
1734.000	137
1735.000	142
1736.000	142
1737.000	140
1738.000	139
1739.000	135
1740.000	145
1741.000	140
1742.000	141
1743.000	147
1744.000	147
1745.000	139
1746.000	134
1747.000	136
1748.000	146
1749.000	142
1750.000	148
1751.000	143
1752.000	143
1753.000	143
1754.000	145
1755.000	151
1756.000	146
1757.000	146
1758.000	152
1759.000	157
1760.000	151
1761.000	152
1762.000	151
1763.000	155
1764.000	154
1765.000	161
1766.000	154
1767.000	166
1768.000	162
1769.000	162
1770.000	170
1771.000	159
1772.000	163
1773.000	169
1774.000	176
1775.000	168
1776.000	172
1777.000	182
1778.000	183
1779.000	184
1780.000	187
1781.000	184
1782.000	190
1783.000	185
1784.000	194
1785.000	191
1786.000	188
1787.000	192
1788.000	187
1789.000	197
1790.000	188
1791.000	190
1792.000	182
1793.000	194
1794.000	187
1795.000	189
1796.000	185
1797.000	185
1798.000	190
1799.000	180
1800.000	191
1801.000	189
1802.000	187
1803.000	173
1804.000	186
1805.000	171
1806.000	183
1807.000	178
1808.000	174
1809.000	174
1810.000	177
1811.000	178
1812.000	165
1813.000	161
1814.000	160
1815.000	162
1816.000	161
1817.000	158
1818.000	162
1819.000	152
1820.000	151
1821.000	150
1822.000	147
1823.000	147
1824.000	141
1825.000	137
1826.000	137
1827.000	136
1828.000	129
1829.000	134
1830.000	127
1831.000	127
1832.000	130
1833.000	124
1834.000	117
1835.000	111
1836.000	116
1837.000	115
1838.000	117
1839.000	111
1840.000	108
1841.000	113
1842.000	103
1843.000	103
1844.000	106
1845.000	102
1846.000	101
1847.000	103
1848.000	96
1849.000	95
1850.000	94
1851.000	99
1852.000	94
1853.000	96
1854.000	94
1855.000	93
1856.000	91
1857.000	88
1858.000	87
1859.000	89
1860.000	88
1861.000	86
1862.000	90
1863.000	83
1864.000	80
1865.000	81
1866.000	78
1867.000	80
1868.000	78
1869.000	78
1870.000	78
1871.000	75
1872.000	80
1873.000	76
1874.000	76
1875.000	77
1876.000	74
1877.000	80
1878.000	77
1879.000	69
1880.000	76
1881.000	74
1882.000	69
1883.000	74
1884.000	68
1885.000	74
1886.000	77
1887.000	73
1888.000	75
1889.000	75
1890.000	74
1891.000	77
1892.000	71
1893.000	77
1894.000	79
1895.000	81
1896.000	83
1897.000	86
1898.000	88
1899.000	89
1900.000	93
1901.000	98
1902.000	104
1903.000	105
1904.000	100
1905.000	110
1906.000	117
1907.000	119
1908.000	120
1909.000	117
1910.000	121
1911.000	125
1912.000	120
1913.000	115
1914.000	115
1915.000	117
1916.000	116
1917.000	114
1918.000	107
1919.000	108
1920.000	102
1921.000	94
1922.000	95
1923.000	91
1924.000	85
1925.000	87
1926.000	86
1927.000	76
1928.000	79
1929.000	74
1930.000	74
1931.000	74
1932.000	72
1933.000	76
1934.000	71
1935.000	63
1936.000	70
1937.000	63
1938.000	66
1939.000	65
1940.000	64
1941.000	71
1942.000	67
1943.000	69
1944.000	66
1945.000	66
1946.000	69
1947.000	64
1948.000	65
1949.000	67
1950.000	62
1951.000	59
1952.000	64
1953.000	61
1954.000	63
1955.000	63
1956.000	59
1957.000	56
1958.000	62
1959.000	58
1960.000	53
1961.000	55
1962.000	57
1963.000	55
1964.000	51
1965.000	54
1966.000	54
1967.000	51
1968.000	52
1969.000	54
1970.000	47
1971.000	51
1972.000	46
1973.000	49
1974.000	50
1975.000	51
1976.000	50
1977.000	50
1978.000	48
1979.000	50
1980.000	53
1981.000	51
1982.000	49
1983.000	51
1984.000	46
1985.000	48
1986.000	46
1987.000	51
1988.000	47
1989.000	49
1990.000	50
1991.000	50
1992.000	52
1993.000	47
1994.000	46
1995.000	52
1996.000	49
1997.000	52
1998.000	48
1999.000	50
2000.000	46
2001.000	47
2002.000	46
2003.000	47
2004.000	49
2005.000	44
2006.000	50
2007.000	49
2008.000	49
2009.000	49
2010.000	50
2011.000	50
2012.000	50
2013.000	46
2014.000	46
2015.000	48
2016.000	51
2017.000	44
2018.000	48
2019.000	48
2020.000	46
2021.000	47
2022.000	46
2023.000	49
2024.000	46
2025.000	46
2026.000	43
2027.000	48
2028.000	48
2029.000	47
2030.000	47
2031.000	43
2032.000	46
2033.000	47
2034.000	43
2035.000	45
2036.000	48
2037.000	47
2038.000	47
2039.000	45
2040.000	47
2041.000	45
2042.000	43
2043.000	44
2044.000	49
2045.000	47
2046.000	48
2047.000	48
2048.000	0
