Date:	23-Sep-20		Time:	11:32 PM		Version no:	0.00		Project name:	55		Sample name:	222		Section name:	section		Position	0.000000	mm	E0	0.000000	keV	E1	1.000000	keV/channel	sample surface	2.000000	cm	Tube anode:	Mo		Tube voltage:	30	kV	Tube current:	30	mA	gain	15		std. database			resultfile	result		matrix element	11		sample thickness	1.000000		air passage	0.560000	cm	comments	not in position		peaking_time	0.300000	m-sec	trigger_threshold	40.000000	V	mca_bin_width	2.000000	no:	number_mca_channels	2048.000000	no:	gap_time	2048.000000	m-sec	trigger_peaking_time	2048.000000	m-sec	GAINDAC	400		HIGHGAIN	400		TAURC	400		RCTAU	400		RCTAUFRAC	400		livetime	13.334824	seconds	runtime	15.000351	seconds	input_count_rate	47769.585089	cps	output_count_rate	42465.604889	cps	triggers	704307	seconds	events_in_run	618783	seconds	channel	content		1.000	0
2.000	0
3.000	0
4.000	0
5.000	0
6.000	0
7.000	0
8.000	0
9.000	0
10.000	0
11.000	0
12.000	0
13.000	0
14.000	0
15.000	0
16.000	0
17.000	0
18.000	0
19.000	0
20.000	0
21.000	0
22.000	0
23.000	0
24.000	0
25.000	0
26.000	0
27.000	0
28.000	0
29.000	0
30.000	0
31.000	1
32.000	0
33.000	0
34.000	1
35.000	1
36.000	1
37.000	0
38.000	0
39.000	0
40.000	0
41.000	0
42.000	0
43.000	0
44.000	0
45.000	1
46.000	0
47.000	1
48.000	1
49.000	1
50.000	1
51.000	1
52.000	2
53.000	3
54.000	3
55.000	4
56.000	8
57.000	9
58.000	13
59.000	17
60.000	22
61.000	26
62.000	32
63.000	31
64.000	28
65.000	31
66.000	31
67.000	28
68.000	25
69.000	28
70.000	27
71.000	26
72.000	26
73.000	23
74.000	24
75.000	24
76.000	22
77.000	24
78.000	23
79.000	22
80.000	25
81.000	25
82.000	24
83.000	25
84.000	26
85.000	27
86.000	27
87.000	23
88.000	24
89.000	25
90.000	25
91.000	23
92.000	24
93.000	23
94.000	19
95.000	20
96.000	21
97.000	22
98.000	22
99.000	22
100.000	22
101.000	21
102.000	20
103.000	22
104.000	20
105.000	18
106.000	19
107.000	17
108.000	19
109.000	17
110.000	20
111.000	18
112.000	19
113.000	19
114.000	18
115.000	18
116.000	17
117.000	18
118.000	19
119.000	19
120.000	18
121.000	18
122.000	17
123.000	18
124.000	17
125.000	14
126.000	16
127.000	16
128.000	16
129.000	14
130.000	18
131.000	17
132.000	17
133.000	16
134.000	16
135.000	16
136.000	15
137.000	16
138.000	16
139.000	16
140.000	17
141.000	17
142.000	21
143.000	21
144.000	25
145.000	23
146.000	24
147.000	22
148.000	21
149.000	22
150.000	21
151.000	18
152.000	16
153.000	14
154.000	14
155.000	15
156.000	14
157.000	13
158.000	14
159.000	14
160.000	12
161.000	16
162.000	14
163.000	14
164.000	15
165.000	16
166.000	20
167.000	23
168.000	22
169.000	25
170.000	25
171.000	27
172.000	27
173.000	28
174.000	24
175.000	23
176.000	23
177.000	21
178.000	23
179.000	27
180.000	31
181.000	38
182.000	41
183.000	56
184.000	76
185.000	103
186.000	130
187.000	169
188.000	214
189.000	249
190.000	263
191.000	281
192.000	267
193.000	239
194.000	201
195.000	157
196.000	121
197.000	86
198.000	61
199.000	43
200.000	30
201.000	22
202.000	19
203.000	18
204.000	17
205.000	16
206.000	17
207.000	16
208.000	18
209.000	17
210.000	16
211.000	17
212.000	18
213.000	21
214.000	22
215.000	25
216.000	25
217.000	29
218.000	39
219.000	39
220.000	45
221.000	43
222.000	49
223.000	53
224.000	47
225.000	47
226.000	40
227.000	36
228.000	26
229.000	24
230.000	24
231.000	19
232.000	19
233.000	16
234.000	13
235.000	14
236.000	14
237.000	14
238.000	13
239.000	12
240.000	14
241.000	14
242.000	14
243.000	15
244.000	13
245.000	16
246.000	18
247.000	23
248.000	24
249.000	30
250.000	45
251.000	57
252.000	73
253.000	94
254.000	109
255.000	126
256.000	134
257.000	146
258.000	134
259.000	129
260.000	109
261.000	96
262.000	72
263.000	59
264.000	45
265.000	35
266.000	29
267.000	21
268.000	22
269.000	20
270.000	21
271.000	23
272.000	29
273.000	27
274.000	29
275.000	26
276.000	27
277.000	30
278.000	27
279.000	31
280.000	27
281.000	30
282.000	29
283.000	37
284.000	40
285.000	48
286.000	54
287.000	62
288.000	68
289.000	72
290.000	76
291.000	73
292.000	67
293.000	59
294.000	50
295.000	46
296.000	40
297.000	35
298.000	30
299.000	25
300.000	20
301.000	22
302.000	24
303.000	23
304.000	22
305.000	26
306.000	25
307.000	25
308.000	23
309.000	29
310.000	31
311.000	33
312.000	36
313.000	39
314.000	40
315.000	45
316.000	47
317.000	58
318.000	68
319.000	76
320.000	94
321.000	105
322.000	112
323.000	127
324.000	130
325.000	129
326.000	122
327.000	113
328.000	102
329.000	86
330.000	70
331.000	62
332.000	50
333.000	40
334.000	35
335.000	32
336.000	34
337.000	30
338.000	36
339.000	38
340.000	41
341.000	54
342.000	65
343.000	82
344.000	102
345.000	146
346.000	215
347.000	316
348.000	515
349.000	814
350.000	1296
351.000	2001
352.000	3087
353.000	4518
354.000	6463
355.000	8785
356.000	11597
357.000	14431
358.000	17310
359.000	19805
360.000	21605
361.000	22530
362.000	22289
363.000	21107
364.000	19144
365.000	16638
366.000	13607
367.000	10694
368.000	8013
369.000	5813
370.000	3987
371.000	2628
372.000	1664
373.000	1034
374.000	628
375.000	392
376.000	271
377.000	199
378.000	186
379.000	201
380.000	246
381.000	303
382.000	423
383.000	561
384.000	786
385.000	1054
386.000	1352
387.000	1733
388.000	2142
389.000	2537
390.000	2937
391.000	3216
392.000	3423
393.000	3420
394.000	3333
395.000	3082
396.000	2738
397.000	2353
398.000	1892
399.000	1521
400.000	1111
401.000	807
402.000	555
403.000	362
404.000	242
405.000	153
406.000	90
407.000	58
408.000	34
409.000	21
410.000	17
411.000	11
412.000	8
413.000	11
414.000	9
415.000	7
416.000	6
417.000	7
418.000	8
419.000	10
420.000	7
421.000	8
422.000	9
423.000	7
424.000	8
425.000	8
426.000	10
427.000	8
428.000	12
429.000	11
430.000	11
431.000	19
432.000	20
433.000	27
434.000	36
435.000	38
436.000	47
437.000	51
438.000	63
439.000	62
440.000	71
441.000	69
442.000	68
443.000	66
444.000	63
445.000	52
446.000	48
447.000	43
448.000	36
449.000	27
450.000	26
451.000	22
452.000	18
453.000	21
454.000	20
455.000	18
456.000	18
457.000	17
458.000	15
459.000	16
460.000	15
461.000	14
462.000	14
463.000	13
464.000	12
465.000	13
466.000	13
467.000	12
468.000	14
469.000	14
470.000	13
471.000	13
472.000	16
473.000	14
474.000	17
475.000	16
476.000	19
477.000	18
478.000	20
479.000	24
480.000	19
481.000	23
482.000	22
483.000	24
484.000	24
485.000	22
486.000	23
487.000	23
488.000	18
489.000	19
490.000	16
491.000	16
492.000	16
493.000	16
494.000	15
495.000	13
496.000	16
497.000	14
498.000	15
499.000	15
500.000	17
501.000	15
502.000	16
503.000	15
504.000	16
505.000	19
506.000	17
507.000	19
508.000	19
509.000	16
510.000	21
511.000	19
512.000	18
513.000	20
514.000	21
515.000	21
516.000	23
517.000	22
518.000	24
519.000	22
520.000	23
521.000	27
522.000	29
523.000	34
524.000	36
525.000	37
526.000	36
527.000	37
528.000	39
529.000	38
530.000	41
531.000	37
532.000	36
533.000	33
534.000	33
535.000	31
536.000	25
537.000	28
538.000	23
539.000	21
540.000	23
541.000	21
542.000	19
543.000	22
544.000	22
545.000	20
546.000	22
547.000	20
548.000	22
549.000	21
550.000	25
551.000	19
552.000	23
553.000	20
554.000	27
555.000	25
556.000	26
557.000	30
558.000	26
559.000	26
560.000	28
561.000	31
562.000	30
563.000	34
564.000	34
565.000	39
566.000	41
567.000	41
568.000	45
569.000	50
570.000	57
571.000	55
572.000	62
573.000	66
574.000	65
575.000	72
576.000	70
577.000	71
578.000	63
579.000	67
580.000	58
581.000	60
582.000	48
583.000	48
584.000	42
585.000	41
586.000	36
587.000	38
588.000	30
589.000	33
590.000	29
591.000	27
592.000	27
593.000	27
594.000	28
595.000	29
596.000	29
597.000	28
598.000	26
599.000	29
600.000	29
601.000	31
602.000	26
603.000	28
604.000	34
605.000	34
606.000	43
607.000	48
608.000	51
609.000	68
610.000	85
611.000	117
612.000	151
613.000	203
614.000	274
615.000	366
616.000	463
617.000	600
618.000	751
619.000	897
620.000	1068
621.000	1210
622.000	1362
623.000	1476
624.000	1569
625.000	1600
626.000	1592
627.000	1537
628.000	1447
629.000	1343
630.000	1183
631.000	1014
632.000	834
633.000	709
634.000	569
635.000	442
636.000	339
637.000	256
638.000	196
639.000	147
640.000	115
641.000	93
642.000	78
643.000	70
644.000	59
645.000	57
646.000	56
647.000	53
648.000	49
649.000	52
650.000	50
651.000	49
652.000	50
653.000	53
654.000	51
655.000	52
656.000	51
657.000	46
658.000	53
659.000	52
660.000	55
661.000	54
662.000	52
663.000	52
664.000	56
665.000	58
666.000	59
667.000	58
668.000	64
669.000	62
670.000	59
671.000	65
672.000	71
673.000	76
674.000	74
675.000	83
676.000	89
677.000	100
678.000	113
679.000	124
680.000	148
681.000	168
682.000	193
683.000	212
684.000	241
685.000	260
686.000	281
687.000	303
688.000	307
689.000	305
690.000	308
691.000	303
692.000	283
693.000	265
694.000	240
695.000	221
696.000	198
697.000	174
698.000	146
699.000	134
700.000	122
701.000	99
702.000	89
703.000	80
704.000	77
705.000	65
706.000	69
707.000	60
708.000	60
709.000	64
710.000	61
711.000	65
712.000	65
713.000	68
714.000	72
715.000	70
716.000	76
717.000	79
718.000	84
719.000	82
720.000	87
721.000	90
722.000	92
723.000	84
724.000	95
725.000	96
726.000	95
727.000	90
728.000	90
729.000	94
730.000	95
731.000	92
732.000	84
733.000	87
734.000	84
735.000	85
736.000	76
737.000	77
738.000	77
739.000	77
740.000	73
741.000	66
742.000	78
743.000	76
744.000	70
745.000	68
746.000	74
747.000	72
748.000	70
749.000	76
750.000	74
751.000	72
752.000	75
753.000	74
754.000	71
755.000	75
756.000	76
757.000	79
758.000	74
759.000	78
760.000	71
761.000	72
762.000	72
763.000	73
764.000	78
765.000	77
766.000	75
767.000	75
768.000	77
769.000	78
770.000	83
771.000	83
772.000	84
773.000	84
774.000	82
775.000	86
776.000	91
777.000	94
778.000	98
779.000	99
780.000	99
781.000	101
782.000	112
783.000	117
784.000	117
785.000	120
786.000	132
787.000	134
788.000	125
789.000	133
790.000	135
791.000	138
792.000	140
793.000	143
794.000	140
795.000	145
796.000	146
797.000	148
798.000	146
799.000	145
800.000	147
801.000	153
802.000	150
803.000	157
804.000	157
805.000	158
806.000	165
807.000	171
808.000	181
809.000	178
810.000	198
811.000	211
812.000	218
813.000	244
814.000	255
815.000	272
816.000	287
817.000	301
818.000	294
819.000	303
820.000	307
821.000	303
822.000	300
823.000	273
824.000	267
825.000	254
826.000	235
827.000	220
828.000	203
829.000	179
830.000	169
831.000	165
832.000	143
833.000	144
834.000	131
835.000	125
836.000	129
837.000	125
838.000	120
839.000	120
840.000	120
841.000	119
842.000	125
843.000	121
844.000	121
845.000	121
846.000	126
847.000	125
848.000	123
849.000	124
850.000	122
851.000	119
852.000	121
853.000	126
854.000	123
855.000	123
856.000	120
857.000	121
858.000	122
859.000	119
860.000	119
861.000	116
862.000	117
863.000	111
864.000	126
865.000	117
866.000	114
867.000	117
868.000	115
869.000	115
870.000	117
871.000	114
872.000	116
873.000	114
874.000	116
875.000	114
876.000	117
877.000	116
878.000	115
879.000	128
880.000	116
881.000	116
882.000	118
883.000	117
884.000	124
885.000	121
886.000	121
887.000	130
888.000	117
889.000	123
890.000	125
891.000	118
892.000	124
893.000	125
894.000	133
895.000	130
896.000	133
897.000	135
898.000	140
899.000	139
900.000	141
901.000	144
902.000	146
903.000	145
904.000	147
905.000	157
906.000	157
907.000	158
908.000	160
909.000	162
910.000	156
911.000	164
912.000	167
913.000	170
914.000	170
915.000	165
916.000	175
917.000	174
918.000	177
919.000	177
920.000	184
921.000	178
922.000	182
923.000	185
924.000	187
925.000	184
926.000	193
927.000	187
928.000	198
929.000	192
930.000	206
931.000	199
932.000	206
933.000	223
934.000	220
935.000	224
936.000	226
937.000	235
938.000	236
939.000	243
940.000	266
941.000	256
942.000	258
943.000	261
944.000	270
945.000	264
946.000	266
947.000	258
948.000	249
949.000	248
950.000	233
951.000	227
952.000	215
953.000	218
954.000	209
955.000	200
956.000	192
957.000	187
958.000	187
959.000	180
960.000	180
961.000	176
962.000	182
963.000	180
964.000	178
965.000	178
966.000	189
967.000	178
968.000	188
969.000	190
970.000	189
971.000	188
972.000	183
973.000	193
974.000	186
975.000	188
976.000	184
977.000	180
978.000	180
979.000	167
980.000	171
981.000	165
982.000	168
983.000	162
984.000	155
985.000	152
986.000	148
987.000	143
988.000	136
989.000	147
990.000	141
991.000	141
992.000	144
993.000	141
994.000	143
995.000	145
996.000	141
997.000	139
998.000	139
999.000	137
1000.000	141
1001.000	135
1002.000	130
1003.000	135
1004.000	141
1005.000	134
1006.000	135
1007.000	141
1008.000	136
1009.000	133
1010.000	134
1011.000	140
1012.000	130
1013.000	135
1014.000	140
1015.000	131
1016.000	132
1017.000	141
1018.000	134
1019.000	135
1020.000	129
1021.000	137
1022.000	137
1023.000	136
1024.000	145
1025.000	148
1026.000	138
1027.000	140
1028.000	142
1029.000	141
1030.000	143
1031.000	139
1032.000	142
1033.000	141
1034.000	144
1035.000	150
1036.000	145
1037.000	142
1038.000	141
1039.000	143
1040.000	155
1041.000	146
1042.000	142
1043.000	146
1044.000	152
1045.000	143
1046.000	155
1047.000	157
1048.000	156
1049.000	154
1050.000	155
1051.000	151
1052.000	154
1053.000	153
1054.000	155
1055.000	155
1056.000	154
1057.000	164
1058.000	160
1059.000	159
1060.000	167
1061.000	156
1062.000	164
1063.000	161
1064.000	159
1065.000	169
1066.000	160
1067.000	165
1068.000	156
1069.000	159
1070.000	161
1071.000	163
1072.000	167
1073.000	157
1074.000	163
1075.000	165
1076.000	158
1077.000	163
1078.000	168
1079.000	155
1080.000	157
1081.000	159
1082.000	158
1083.000	163
1084.000	164
1085.000	157
1086.000	158
1087.000	156
1088.000	163
1089.000	157
1090.000	160
1091.000	163
1092.000	161
1093.000	168
1094.000	167
1095.000	178
1096.000	167
1097.000	172
1098.000	175
1099.000	172
1100.000	176
1101.000	174
1102.000	178
1103.000	174
1104.000	178
1105.000	174
1106.000	171
1107.000	168
1108.000	172
1109.000	166
1110.000	161
1111.000	164
1112.000	167
1113.000	161
1114.000	170
1115.000	163
1116.000	162
1117.000	162
1118.000	160
1119.000	166
1120.000	163
1121.000	165
1122.000	154
1123.000	162
1124.000	158
1125.000	163
1126.000	164
1127.000	165
1128.000	168
1129.000	169
1130.000	168
1131.000	167
1132.000	168
1133.000	165
1134.000	163
1135.000	171
1136.000	164
1137.000	161
1138.000	166
1139.000	171
1140.000	162
1141.000	153
1142.000	162
1143.000	164
1144.000	168
1145.000	173
1146.000	165
1147.000	169
1148.000	170
1149.000	168
1150.000	172
1151.000	174
1152.000	176
1153.000	173
1154.000	175
1155.000	184
1156.000	176
1157.000	185
1158.000	174
1159.000	185
1160.000	186
1161.000	183
1162.000	193
1163.000	180
1164.000	188
1165.000	186
1166.000	187
1167.000	182
1168.000	177
1169.000	180
1170.000	175
1171.000	169
1172.000	176
1173.000	175
1174.000	176
1175.000	169
1176.000	166
1177.000	166
1178.000	176
1179.000	166
1180.000	169
1181.000	158
1182.000	168
1183.000	167
1184.000	165
1185.000	161
1186.000	167
1187.000	165
1188.000	167
1189.000	155
1190.000	164
1191.000	167
1192.000	160
1193.000	166
1194.000	158
1195.000	159
1196.000	164
1197.000	164
1198.000	156
1199.000	153
1200.000	160
1201.000	167
1202.000	162
1203.000	165
1204.000	164
1205.000	173
1206.000	166
1207.000	163
1208.000	166
1209.000	172
1210.000	167
1211.000	166
1212.000	169
1213.000	168
1214.000	173
1215.000	163
1216.000	168
1217.000	171
1218.000	172
1219.000	176
1220.000	166
1221.000	174
1222.000	174
1223.000	171
1224.000	165
1225.000	172
1226.000	175
1227.000	172
1228.000	159
1229.000	170
1230.000	170
1231.000	172
1232.000	169
1233.000	167
1234.000	172
1235.000	180
1236.000	175
1237.000	166
1238.000	170
1239.000	180
1240.000	173
1241.000	160
1242.000	173
1243.000	169
1244.000	163
1245.000	168
1246.000	169
1247.000	171
1248.000	166
1249.000	170
1250.000	171
1251.000	178
1252.000	168
1253.000	170
1254.000	168
1255.000	169
1256.000	167
1257.000	173
1258.000	166
1259.000	170
1260.000	176
1261.000	163
1262.000	169
1263.000	167
1264.000	163
1265.000	161
1266.000	165
1267.000	169
1268.000	162
1269.000	169
1270.000	161
1271.000	171
1272.000	159
1273.000	167
1274.000	164
1275.000	167
1276.000	163
1277.000	171
1278.000	168
1279.000	159
1280.000	166
1281.000	163
1282.000	166
1283.000	166
1284.000	166
1285.000	169
1286.000	167
1287.000	177
1288.000	166
1289.000	172
1290.000	172
1291.000	175
1292.000	175
1293.000	177
1294.000	173
1295.000	174
1296.000	175
1297.000	178
1298.000	176
1299.000	181
1300.000	173
1301.000	184
1302.000	176
1303.000	182
1304.000	187
1305.000	175
1306.000	184
1307.000	178
1308.000	181
1309.000	180
1310.000	177
1311.000	175
1312.000	182
1313.000	173
1314.000	176
1315.000	174
1316.000	178
1317.000	175
1318.000	181
1319.000	181
1320.000	171
1321.000	179
1322.000	171
1323.000	171
1324.000	174
1325.000	177
1326.000	172
1327.000	176
1328.000	173
1329.000	171
1330.000	183
1331.000	169
1332.000	172
1333.000	175
1334.000	180
1335.000	176
1336.000	173
1337.000	174
1338.000	177
1339.000	168
1340.000	177
1341.000	175
1342.000	176
1343.000	175
1344.000	182
1345.000	182
1346.000	176
1347.000	177
1348.000	177
1349.000	182
1350.000	186
1351.000	187
1352.000	188
1353.000	191
1354.000	194
1355.000	192
1356.000	198
1357.000	211
1358.000	221
1359.000	240
1360.000	259
1361.000	285
1362.000	297
1363.000	342
1364.000	363
1365.000	401
1366.000	444
1367.000	492
1368.000	551
1369.000	612
1370.000	689
1371.000	738
1372.000	774
1373.000	855
1374.000	913
1375.000	956
1376.000	993
1377.000	1029
1378.000	1060
1379.000	1073
1380.000	1081
1381.000	1081
1382.000	1057
1383.000	1033
1384.000	974
1385.000	936
1386.000	855
1387.000	818
1388.000	734
1389.000	684
1390.000	621
1391.000	552
1392.000	500
1393.000	448
1394.000	410
1395.000	362
1396.000	324
1397.000	297
1398.000	276
1399.000	244
1400.000	226
1401.000	219
1402.000	203
1403.000	190
1404.000	189
1405.000	177
1406.000	182
1407.000	178
1408.000	175
1409.000	175
1410.000	170
1411.000	174
1412.000	176
1413.000	172
1414.000	175
1415.000	173
1416.000	170
1417.000	174
1418.000	174
1419.000	175
1420.000	167
1421.000	171
1422.000	174
1423.000	170
1424.000	166
1425.000	166
1426.000	169
1427.000	169
1428.000	172
1429.000	173
1430.000	174
1431.000	174
1432.000	172
1433.000	169
1434.000	169
1435.000	173
1436.000	174
1437.000	175
1438.000	170
1439.000	172
1440.000	174
1441.000	175
1442.000	173
1443.000	175
1444.000	173
1445.000	165
1446.000	175
1447.000	170
1448.000	180
1449.000	177
1450.000	176
1451.000	177
1452.000	178
1453.000	184
1454.000	185
1455.000	178
1456.000	185
1457.000	188
1458.000	184
1459.000	186
1460.000	172
1461.000	180
1462.000	177
1463.000	174
1464.000	181
1465.000	179
1466.000	178
1467.000	178
1468.000	184
1469.000	183
1470.000	179
1471.000	178
1472.000	174
1473.000	176
1474.000	178
1475.000	174
1476.000	177
1477.000	179
1478.000	178
1479.000	179
1480.000	179
1481.000	174
1482.000	177
1483.000	179
1484.000	177
1485.000	176
1486.000	181
1487.000	178
1488.000	173
1489.000	187
1490.000	178
1491.000	180
1492.000	172
1493.000	179
1494.000	171
1495.000	176
1496.000	184
1497.000	176
1498.000	174
1499.000	175
1500.000	179
1501.000	179
1502.000	179
1503.000	180
1504.000	182
1505.000	184
1506.000	183
1507.000	178
1508.000	181
1509.000	179
1510.000	181
1511.000	187
1512.000	183
1513.000	187
1514.000	190
1515.000	189
1516.000	187
1517.000	193
1518.000	188
1519.000	202
1520.000	192
1521.000	196
1522.000	197
1523.000	199
1524.000	200
1525.000	207
1526.000	212
1527.000	216
1528.000	221
1529.000	230
1530.000	242
1531.000	239
1532.000	260
1533.000	259
1534.000	278
1535.000	289
1536.000	304
1537.000	314
1538.000	310
1539.000	334
1540.000	340
1541.000	345
1542.000	350
1543.000	355
1544.000	357
1545.000	355
1546.000	346
1547.000	354
1548.000	357
1549.000	353
1550.000	337
1551.000	328
1552.000	317
1553.000	314
1554.000	304
1555.000	292
1556.000	294
1557.000	275
1558.000	287
1559.000	272
1560.000	277
1561.000	276
1562.000	274
1563.000	269
1564.000	273
1565.000	282
1566.000	284
1567.000	278
1568.000	288
1569.000	297
1570.000	306
1571.000	309
1572.000	321
1573.000	319
1574.000	321
1575.000	323
1576.000	326
1577.000	343
1578.000	347
1579.000	351
1580.000	368
1581.000	372
1582.000	378
1583.000	390
1584.000	406
1585.000	418
1586.000	430
1587.000	431
1588.000	446
1589.000	462
1590.000	478
1591.000	476
1592.000	505
1593.000	491
1594.000	513
1595.000	519
1596.000	521
1597.000	547
1598.000	560
1599.000	564
1600.000	568
1601.000	581
1602.000	582
1603.000	580
1604.000	598
1605.000	597
1606.000	603
1607.000	591
1608.000	612
1609.000	606
1610.000	605
1611.000	598
1612.000	600
1613.000	580
1614.000	588
1615.000	581
1616.000	578
1617.000	578
1618.000	560
1619.000	548
1620.000	544
1621.000	534
1622.000	531
1623.000	526
1624.000	507
1625.000	496
1626.000	470
1627.000	467
1628.000	459
1629.000	436
1630.000	432
1631.000	415
1632.000	411
1633.000	403
1634.000	382
1635.000	371
1636.000	367
1637.000	357
1638.000	350
1639.000	331
1640.000	331
1641.000	319
1642.000	316
1643.000	287
1644.000	293
1645.000	290
1646.000	278
1647.000	268
1648.000	260
1649.000	255
1650.000	242
1651.000	232
1652.000	240
1653.000	224
1654.000	224
1655.000	215
1656.000	212
1657.000	209
1658.000	210
1659.000	205
1660.000	194
1661.000	201
1662.000	190
1663.000	194
1664.000	191
1665.000	177
1666.000	182
1667.000	183
1668.000	184
1669.000	179
1670.000	181
1671.000	175
1672.000	173
1673.000	177
1674.000	188
1675.000	177
1676.000	189
1677.000	196
1678.000	198
1679.000	208
1680.000	216
1681.000	222
1682.000	238
1683.000	240
1684.000	260
1685.000	276
1686.000	294
1687.000	313
1688.000	344
1689.000	353
1690.000	379
1691.000	408
1692.000	405
1693.000	448
1694.000	466
1695.000	486
1696.000	504
1697.000	514
1698.000	524
1699.000	538
1700.000	548
1701.000	554
1702.000	547
1703.000	555
1704.000	538
1705.000	537
1706.000	510
1707.000	512
1708.000	483
1709.000	454
1710.000	437
1711.000	408
1712.000	379
1713.000	361
1714.000	334
1715.000	317
1716.000	288
1717.000	262
1718.000	244
1719.000	238
1720.000	210
1721.000	202
1722.000	197
1723.000	185
1724.000	167
1725.000	160
1726.000	157
1727.000	151
1728.000	150
1729.000	148
1730.000	143
1731.000	141
1732.000	139
1733.000	141
1734.000	143
1735.000	138
1736.000	135
1737.000	137
1738.000	135
1739.000	137
1740.000	136
1741.000	136
1742.000	138
1743.000	140
1744.000	144
1745.000	148
1746.000	139
1747.000	142
1748.000	136
1749.000	142
1750.000	141
1751.000	144
1752.000	147
1753.000	144
1754.000	142
1755.000	146
1756.000	150
1757.000	152
1758.000	149
1759.000	147
1760.000	150
1761.000	150
1762.000	154
1763.000	152
1764.000	163
1765.000	154
1766.000	163
1767.000	156
1768.000	158
1769.000	156
1770.000	166
1771.000	166
1772.000	166
1773.000	169
1774.000	170
1775.000	171
1776.000	177
1777.000	177
1778.000	179
1779.000	176
1780.000	178
1781.000	180
1782.000	179
1783.000	190
1784.000	188
1785.000	189
1786.000	179
1787.000	186
1788.000	185
1789.000	184
1790.000	190
1791.000	194
1792.000	192
1793.000	191
1794.000	182
1795.000	200
1796.000	193
1797.000	192
1798.000	200
1799.000	191
1800.000	188
1801.000	182
1802.000	187
1803.000	185
1804.000	182
1805.000	187
1806.000	180
1807.000	181
1808.000	179
1809.000	177
1810.000	173
1811.000	168
1812.000	165
1813.000	169
1814.000	158
1815.000	162
1816.000	165
1817.000	160
1818.000	152
1819.000	158
1820.000	151
1821.000	150
1822.000	143
1823.000	150
1824.000	146
1825.000	140
1826.000	142
1827.000	135
1828.000	138
1829.000	131
1830.000	128
1831.000	124
1832.000	125
1833.000	124
1834.000	123
1835.000	121
1836.000	119
1837.000	118
1838.000	113
1839.000	112
1840.000	107
1841.000	102
1842.000	105
1843.000	110
1844.000	110
1845.000	101
1846.000	98
1847.000	103
1848.000	104
1849.000	103
1850.000	99
1851.000	99
1852.000	90
1853.000	99
1854.000	95
1855.000	91
1856.000	92
1857.000	90
1858.000	90
1859.000	83
1860.000	87
1861.000	89
1862.000	86
1863.000	86
1864.000	82
1865.000	82
1866.000	81
1867.000	80
1868.000	81
1869.000	80
1870.000	77
1871.000	76
1872.000	77
1873.000	77
1874.000	78
1875.000	79
1876.000	76
1877.000	74
1878.000	76
1879.000	76
1880.000	78
1881.000	76
1882.000	69
1883.000	74
1884.000	76
1885.000	71
1886.000	68
1887.000	76
1888.000	74
1889.000	76
1890.000	73
1891.000	76
1892.000	77
1893.000	76
1894.000	84
1895.000	86
1896.000	85
1897.000	84
1898.000	93
1899.000	90
1900.000	91
1901.000	101
1902.000	105
1903.000	106
1904.000	112
1905.000	114
1906.000	116
1907.000	121
1908.000	117
1909.000	118
1910.000	121
1911.000	119
1912.000	121
1913.000	123
1914.000	115
1915.000	118
1916.000	120
1917.000	108
1918.000	109
1919.000	106
1920.000	103
1921.000	97
1922.000	91
1923.000	91
1924.000	91
1925.000	83
1926.000	78
1927.000	78
1928.000	78
1929.000	75
1930.000	72
1931.000	73
1932.000	71
1933.000	71
1934.000	69
1935.000	67
1936.000	71
1937.000	67
1938.000	65
1939.000	68
1940.000	66
1941.000	71
1942.000	73
1943.000	69
1944.000	63
1945.000	72
1946.000	65
1947.000	70
1948.000	64
1949.000	67
1950.000	65
1951.000	64
1952.000	63
1953.000	60
1954.000	60
1955.000	56
1956.000	56
1957.000	60
1958.000	56
1959.000	58
1960.000	57
1961.000	54
1962.000	53
1963.000	51
1964.000	49
1965.000	53
1966.000	51
1967.000	48
1968.000	53
1969.000	53
1970.000	49
1971.000	48
1972.000	53
1973.000	50
1974.000	52
1975.000	52
1976.000	52
1977.000	50
1978.000	50
1979.000	52
1980.000	50
1981.000	48
1982.000	48
1983.000	50
1984.000	52
1985.000	52
1986.000	52
1987.000	49
1988.000	49
1989.000	52
1990.000	45
1991.000	53
1992.000	52
1993.000	51
1994.000	46
1995.000	48
1996.000	47
1997.000	48
1998.000	47
1999.000	50
2000.000	51
2001.000	49
2002.000	52
2003.000	48
2004.000	52
2005.000	47
2006.000	48
2007.000	48
2008.000	48
2009.000	48
2010.000	50
2011.000	52
2012.000	45
2013.000	45
2014.000	44
2015.000	49
2016.000	46
2017.000	44
2018.000	44
2019.000	46
2020.000	45
2021.000	47
2022.000	47
2023.000	48
2024.000	45
2025.000	45
2026.000	45
2027.000	44
2028.000	50
2029.000	44
2030.000	44
2031.000	47
2032.000	45
2033.000	45
2034.000	47
2035.000	43
2036.000	45
2037.000	49
2038.000	46
2039.000	46
2040.000	44
2041.000	46
2042.000	46
2043.000	47
2044.000	48
2045.000	46
2046.000	46
2047.000	45
2048.000	0
