Date:	17-Sep-20		Time:	11:47 PM		Version no:	0.00		Project name:	55		Sample name:	222		Section name:	section		Position	0.000000	mm	E0	0.000000	keV	E1	1.000000	keV/channel	sample surface	2.000000	cm	Tube anode:	Mo		Tube voltage:	30	kV	Tube current:	30	mA	gain	15		std. database			resultfile	result		matrix element	11		sample thickness	1.000000		air passage	0.560000	cm	comments	not in position		peaking_time	0.300000	m-sec	trigger_threshold	40.000000	V	mca_bin_width	2.000000	no:	number_mca_channels	2048.000000	no:	gap_time	2048.000000	m-sec	trigger_peaking_time	2048.000000	m-sec	GAINDAC	400		HIGHGAIN	400		TAURC	400		RCTAU	400		RCTAUFRAC	400		livetime	13.014294	seconds	runtime	15.000232	seconds	input_count_rate	80431.410221	cps	output_count_rate	69782.785033	cps	triggers	1173264	seconds	events_in_run	1020480	seconds	channel	content		1.000	0
2.000	0
3.000	0
4.000	0
5.000	0
6.000	0
7.000	0
8.000	0
9.000	0
10.000	0
11.000	0
12.000	0
13.000	0
14.000	0
15.000	0
16.000	0
17.000	0
18.000	0
19.000	0
20.000	0
21.000	0
22.000	0
23.000	0
24.000	0
25.000	0
26.000	0
27.000	0
28.000	0
29.000	0
30.000	0
31.000	0
32.000	0
33.000	0
34.000	1
35.000	0
36.000	1
37.000	0
38.000	0
39.000	0
40.000	0
41.000	0
42.000	0
43.000	0
44.000	0
45.000	0
46.000	0
47.000	0
48.000	1
49.000	1
50.000	1
51.000	2
52.000	2
53.000	2
54.000	4
55.000	6
56.000	8
57.000	9
58.000	12
59.000	16
60.000	23
61.000	25
62.000	28
63.000	29
64.000	33
65.000	28
66.000	28
67.000	26
68.000	27
69.000	28
70.000	26
71.000	26
72.000	29
73.000	25
74.000	25
75.000	25
76.000	21
77.000	26
78.000	28
79.000	24
80.000	23
81.000	24
82.000	29
83.000	27
84.000	26
85.000	28
86.000	26
87.000	25
88.000	25
89.000	24
90.000	27
91.000	23
92.000	23
93.000	22
94.000	20
95.000	20
96.000	21
97.000	22
98.000	23
99.000	19
100.000	20
101.000	19
102.000	19
103.000	23
104.000	20
105.000	20
106.000	17
107.000	20
108.000	19
109.000	18
110.000	21
111.000	21
112.000	19
113.000	19
114.000	17
115.000	17
116.000	20
117.000	19
118.000	19
119.000	17
120.000	18
121.000	16
122.000	16
123.000	17
124.000	16
125.000	16
126.000	16
127.000	16
128.000	16
129.000	13
130.000	16
131.000	17
132.000	13
133.000	16
134.000	14
135.000	14
136.000	13
137.000	17
138.000	18
139.000	17
140.000	17
141.000	18
142.000	23
143.000	24
144.000	28
145.000	26
146.000	29
147.000	25
148.000	26
149.000	25
150.000	22
151.000	21
152.000	20
153.000	22
154.000	19
155.000	20
156.000	19
157.000	19
158.000	16
159.000	16
160.000	15
161.000	15
162.000	16
163.000	19
164.000	25
165.000	35
166.000	41
167.000	53
168.000	62
169.000	71
170.000	80
171.000	82
172.000	77
173.000	69
174.000	62
175.000	46
176.000	41
177.000	36
178.000	31
179.000	29
180.000	29
181.000	27
182.000	37
183.000	38
184.000	50
185.000	68
186.000	74
187.000	104
188.000	124
189.000	138
190.000	155
191.000	162
192.000	149
193.000	140
194.000	117
195.000	93
196.000	73
197.000	56
198.000	39
199.000	28
200.000	21
201.000	17
202.000	17
203.000	12
204.000	12
205.000	13
206.000	14
207.000	13
208.000	15
209.000	11
210.000	12
211.000	13
212.000	15
213.000	16
214.000	15
215.000	18
216.000	19
217.000	21
218.000	22
219.000	24
220.000	30
221.000	33
222.000	33
223.000	36
224.000	33
225.000	30
226.000	31
227.000	29
228.000	22
229.000	22
230.000	18
231.000	15
232.000	14
233.000	14
234.000	12
235.000	10
236.000	12
237.000	12
238.000	13
239.000	11
240.000	11
241.000	13
242.000	12
243.000	11
244.000	16
245.000	14
246.000	16
247.000	19
248.000	25
249.000	31
250.000	43
251.000	63
252.000	79
253.000	101
254.000	122
255.000	141
256.000	158
257.000	159
258.000	153
259.000	143
260.000	124
261.000	100
262.000	87
263.000	59
264.000	45
265.000	34
266.000	24
267.000	22
268.000	22
269.000	22
270.000	24
271.000	22
272.000	24
273.000	24
274.000	28
275.000	28
276.000	28
277.000	28
278.000	30
279.000	26
280.000	30
281.000	25
282.000	26
283.000	36
284.000	39
285.000	46
286.000	54
287.000	55
288.000	67
289.000	71
290.000	73
291.000	72
292.000	64
293.000	55
294.000	51
295.000	40
296.000	36
297.000	29
298.000	27
299.000	19
300.000	19
301.000	16
302.000	16
303.000	15
304.000	17
305.000	15
306.000	21
307.000	22
308.000	24
309.000	26
310.000	28
311.000	31
312.000	33
313.000	44
314.000	54
315.000	69
316.000	91
317.000	120
318.000	169
319.000	218
320.000	268
321.000	334
322.000	367
323.000	416
324.000	432
325.000	440
326.000	417
327.000	385
328.000	328
329.000	272
330.000	213
331.000	170
332.000	120
333.000	87
334.000	61
335.000	47
336.000	35
337.000	32
338.000	30
339.000	31
340.000	33
341.000	39
342.000	51
343.000	55
344.000	80
345.000	114
346.000	149
347.000	221
348.000	329
349.000	517
350.000	762
351.000	1189
352.000	1783
353.000	2611
354.000	3665
355.000	4972
356.000	6515
357.000	8185
358.000	9768
359.000	11134
360.000	12205
361.000	12652
362.000	12500
363.000	11928
364.000	10750
365.000	9313
366.000	7660
367.000	6046
368.000	4489
369.000	3252
370.000	2254
371.000	1465
372.000	935
373.000	579
374.000	353
375.000	224
376.000	148
377.000	117
378.000	111
379.000	113
380.000	140
381.000	178
382.000	242
383.000	315
384.000	443
385.000	561
386.000	752
387.000	989
388.000	1202
389.000	1427
390.000	1629
391.000	1787
392.000	1888
393.000	1915
394.000	1860
395.000	1726
396.000	1547
397.000	1317
398.000	1087
399.000	836
400.000	635
401.000	461
402.000	315
403.000	218
404.000	141
405.000	93
406.000	56
407.000	37
408.000	25
409.000	15
410.000	12
411.000	9
412.000	9
413.000	8
414.000	9
415.000	9
416.000	8
417.000	7
418.000	10
419.000	10
420.000	7
421.000	7
422.000	9
423.000	9
424.000	10
425.000	13
426.000	16
427.000	18
428.000	26
429.000	33
430.000	43
431.000	63
432.000	83
433.000	116
434.000	145
435.000	185
436.000	230
437.000	276
438.000	312
439.000	344
440.000	371
441.000	369
442.000	363
443.000	344
444.000	308
445.000	273
446.000	231
447.000	185
448.000	155
449.000	130
450.000	100
451.000	83
452.000	71
453.000	64
454.000	54
455.000	50
456.000	43
457.000	45
458.000	42
459.000	37
460.000	34
461.000	29
462.000	28
463.000	26
464.000	24
465.000	21
466.000	21
467.000	24
468.000	25
469.000	28
470.000	25
471.000	29
472.000	32
473.000	39
474.000	42
475.000	47
476.000	54
477.000	59
478.000	69
479.000	74
480.000	73
481.000	81
482.000	82
483.000	82
484.000	80
485.000	78
486.000	69
487.000	70
488.000	51
489.000	48
490.000	40
491.000	36
492.000	27
493.000	24
494.000	23
495.000	23
496.000	22
497.000	18
498.000	21
499.000	20
500.000	19
501.000	22
502.000	23
503.000	24
504.000	21
505.000	22
506.000	22
507.000	21
508.000	25
509.000	25
510.000	29
511.000	29
512.000	28
513.000	28
514.000	31
515.000	28
516.000	34
517.000	31
518.000	36
519.000	39
520.000	36
521.000	35
522.000	42
523.000	40
524.000	44
525.000	53
526.000	51
527.000	55
528.000	57
529.000	56
530.000	57
531.000	51
532.000	50
533.000	51
534.000	43
535.000	42
536.000	38
537.000	36
538.000	30
539.000	32
540.000	29
541.000	29
542.000	28
543.000	24
544.000	28
545.000	28
546.000	28
547.000	25
548.000	30
549.000	29
550.000	27
551.000	27
552.000	26
553.000	30
554.000	27
555.000	27
556.000	30
557.000	29
558.000	32
559.000	34
560.000	35
561.000	37
562.000	36
563.000	38
564.000	46
565.000	54
566.000	57
567.000	69
568.000	76
569.000	86
570.000	99
571.000	113
572.000	123
573.000	140
574.000	148
575.000	162
576.000	156
577.000	150
578.000	150
579.000	141
580.000	130
581.000	116
582.000	111
583.000	91
584.000	78
585.000	75
586.000	60
587.000	51
588.000	46
589.000	44
590.000	41
591.000	40
592.000	39
593.000	36
594.000	39
595.000	42
596.000	39
597.000	41
598.000	41
599.000	45
600.000	46
601.000	49
602.000	52
603.000	59
604.000	61
605.000	75
606.000	91
607.000	119
608.000	165
609.000	218
610.000	330
611.000	460
612.000	648
613.000	912
614.000	1265
615.000	1706
616.000	2278
617.000	2911
618.000	3676
619.000	4494
620.000	5328
621.000	6147
622.000	6860
623.000	7448
624.000	7830
625.000	8016
626.000	8017
627.000	7696
628.000	7186
629.000	6617
630.000	5782
631.000	4948
632.000	4151
633.000	3354
634.000	2614
635.000	1995
636.000	1510
637.000	1105
638.000	798
639.000	559
640.000	390
641.000	277
642.000	193
643.000	145
644.000	118
645.000	97
646.000	80
647.000	78
648.000	75
649.000	68
650.000	62
651.000	67
652.000	65
653.000	69
654.000	65
655.000	66
656.000	65
657.000	69
658.000	68
659.000	69
660.000	71
661.000	73
662.000	69
663.000	73
664.000	79
665.000	81
666.000	82
667.000	84
668.000	93
669.000	91
670.000	98
671.000	118
672.000	127
673.000	140
674.000	160
675.000	191
676.000	231
677.000	279
678.000	344
679.000	418
680.000	502
681.000	626
682.000	725
683.000	845
684.000	971
685.000	1086
686.000	1169
687.000	1265
688.000	1294
689.000	1306
690.000	1321
691.000	1269
692.000	1194
693.000	1118
694.000	990
695.000	843
696.000	728
697.000	610
698.000	515
699.000	407
700.000	329
701.000	257
702.000	200
703.000	162
704.000	127
705.000	102
706.000	88
707.000	76
708.000	68
709.000	66
710.000	61
711.000	65
712.000	66
713.000	65
714.000	67
715.000	63
716.000	69
717.000	69
718.000	77
719.000	75
720.000	77
721.000	87
722.000	90
723.000	84
724.000	92
725.000	93
726.000	103
727.000	104
728.000	101
729.000	103
730.000	101
731.000	102
732.000	100
733.000	97
734.000	95
735.000	90
736.000	90
737.000	81
738.000	84
739.000	78
740.000	74
741.000	78
742.000	76
743.000	74
744.000	71
745.000	74
746.000	71
747.000	70
748.000	73
749.000	73
750.000	73
751.000	73
752.000	69
753.000	73
754.000	77
755.000	76
756.000	76
757.000	73
758.000	74
759.000	72
760.000	71
761.000	79
762.000	79
763.000	80
764.000	74
765.000	81
766.000	79
767.000	83
768.000	80
769.000	80
770.000	89
771.000	85
772.000	89
773.000	95
774.000	92
775.000	95
776.000	103
777.000	105
778.000	113
779.000	116
780.000	125
781.000	127
782.000	122
783.000	140
784.000	134
785.000	144
786.000	145
787.000	151
788.000	155
789.000	155
790.000	151
791.000	154
792.000	147
793.000	155
794.000	156
795.000	156
796.000	158
797.000	162
798.000	157
799.000	157
800.000	161
801.000	155
802.000	151
803.000	158
804.000	164
805.000	161
806.000	161
807.000	182
808.000	186
809.000	185
810.000	208
811.000	205
812.000	226
813.000	242
814.000	253
815.000	276
816.000	290
817.000	297
818.000	296
819.000	311
820.000	297
821.000	298
822.000	282
823.000	276
824.000	261
825.000	247
826.000	234
827.000	205
828.000	204
829.000	180
830.000	176
831.000	160
832.000	149
833.000	142
834.000	137
835.000	146
836.000	141
837.000	139
838.000	133
839.000	144
840.000	142
841.000	142
842.000	141
843.000	147
844.000	143
845.000	145
846.000	137
847.000	136
848.000	135
849.000	141
850.000	134
851.000	128
852.000	124
853.000	126
854.000	125
855.000	124
856.000	122
857.000	122
858.000	119
859.000	120
860.000	123
861.000	122
862.000	119
863.000	122
864.000	126
865.000	123
866.000	129
867.000	122
868.000	123
869.000	118
870.000	119
871.000	126
872.000	125
873.000	122
874.000	128
875.000	121
876.000	127
877.000	126
878.000	117
879.000	130
880.000	119
881.000	124
882.000	120
883.000	123
884.000	124
885.000	125
886.000	125
887.000	125
888.000	134
889.000	127
890.000	131
891.000	133
892.000	132
893.000	138
894.000	141
895.000	144
896.000	142
897.000	151
898.000	149
899.000	148
900.000	158
901.000	154
902.000	164
903.000	165
904.000	164
905.000	156
906.000	169
907.000	174
908.000	170
909.000	175
910.000	178
911.000	174
912.000	176
913.000	187
914.000	175
915.000	180
916.000	182
917.000	173
918.000	190
919.000	190
920.000	185
921.000	192
922.000	195
923.000	193
924.000	184
925.000	197
926.000	192
927.000	201
928.000	201
929.000	202
930.000	205
931.000	216
932.000	208
933.000	210
934.000	223
935.000	228
936.000	241
937.000	242
938.000	247
939.000	258
940.000	266
941.000	258
942.000	273
943.000	270
944.000	266
945.000	271
946.000	266
947.000	260
948.000	248
949.000	254
950.000	237
951.000	227
952.000	215
953.000	217
954.000	213
955.000	201
956.000	197
957.000	189
958.000	184
959.000	189
960.000	182
961.000	185
962.000	183
963.000	185
964.000	184
965.000	181
966.000	188
967.000	188
968.000	191
969.000	188
970.000	199
971.000	191
972.000	197
973.000	192
974.000	189
975.000	185
976.000	186
977.000	182
978.000	178
979.000	177
980.000	178
981.000	168
982.000	167
983.000	163
984.000	161
985.000	159
986.000	152
987.000	154
988.000	157
989.000	157
990.000	149
991.000	151
992.000	148
993.000	149
994.000	147
995.000	150
996.000	142
997.000	143
998.000	146
999.000	144
1000.000	151
1001.000	146
1002.000	144
1003.000	146
1004.000	141
1005.000	141
1006.000	143
1007.000	140
1008.000	146
1009.000	144
1010.000	145
1011.000	145
1012.000	141
1013.000	141
1014.000	142
1015.000	140
1016.000	152
1017.000	148
1018.000	144
1019.000	143
1020.000	146
1021.000	143
1022.000	144
1023.000	153
1024.000	151
1025.000	141
1026.000	149
1027.000	146
1028.000	153
1029.000	149
1030.000	150
1031.000	159
1032.000	154
1033.000	150
1034.000	150
1035.000	151
1036.000	156
1037.000	153
1038.000	150
1039.000	160
1040.000	154
1041.000	158
1042.000	150
1043.000	159
1044.000	160
1045.000	150
1046.000	154
1047.000	153
1048.000	159
1049.000	154
1050.000	154
1051.000	161
1052.000	162
1053.000	163
1054.000	161
1055.000	164
1056.000	164
1057.000	160
1058.000	163
1059.000	160
1060.000	170
1061.000	166
1062.000	166
1063.000	168
1064.000	167
1065.000	167
1066.000	172
1067.000	167
1068.000	168
1069.000	158
1070.000	171
1071.000	163
1072.000	162
1073.000	166
1074.000	165
1075.000	163
1076.000	161
1077.000	164
1078.000	164
1079.000	170
1080.000	168
1081.000	169
1082.000	169
1083.000	179
1084.000	165
1085.000	153
1086.000	163
1087.000	171
1088.000	167
1089.000	165
1090.000	176
1091.000	170
1092.000	176
1093.000	172
1094.000	175
1095.000	170
1096.000	180
1097.000	180
1098.000	172
1099.000	179
1100.000	181
1101.000	179
1102.000	183
1103.000	185
1104.000	184
1105.000	177
1106.000	178
1107.000	175
1108.000	175
1109.000	178
1110.000	171
1111.000	169
1112.000	176
1113.000	169
1114.000	172
1115.000	169
1116.000	171
1117.000	164
1118.000	173
1119.000	157
1120.000	168
1121.000	168
1122.000	169
1123.000	165
1124.000	165
1125.000	174
1126.000	164
1127.000	165
1128.000	166
1129.000	171
1130.000	171
1131.000	169
1132.000	168
1133.000	172
1134.000	168
1135.000	170
1136.000	168
1137.000	167
1138.000	173
1139.000	174
1140.000	171
1141.000	169
1142.000	170
1143.000	169
1144.000	178
1145.000	180
1146.000	175
1147.000	180
1148.000	176
1149.000	182
1150.000	182
1151.000	175
1152.000	180
1153.000	187
1154.000	187
1155.000	189
1156.000	189
1157.000	191
1158.000	198
1159.000	198
1160.000	205
1161.000	207
1162.000	198
1163.000	198
1164.000	194
1165.000	198
1166.000	198
1167.000	195
1168.000	189
1169.000	192
1170.000	191
1171.000	179
1172.000	178
1173.000	178
1174.000	174
1175.000	181
1176.000	178
1177.000	169
1178.000	172
1179.000	172
1180.000	168
1181.000	173
1182.000	176
1183.000	167
1184.000	170
1185.000	169
1186.000	174
1187.000	168
1188.000	166
1189.000	169
1190.000	167
1191.000	166
1192.000	166
1193.000	172
1194.000	170
1195.000	164
1196.000	165
1197.000	167
1198.000	164
1199.000	170
1200.000	164
1201.000	167
1202.000	167
1203.000	166
1204.000	166
1205.000	168
1206.000	175
1207.000	164
1208.000	177
1209.000	168
1210.000	172
1211.000	175
1212.000	171
1213.000	168
1214.000	167
1215.000	169
1216.000	173
1217.000	175
1218.000	178
1219.000	177
1220.000	172
1221.000	164
1222.000	180
1223.000	177
1224.000	181
1225.000	180
1226.000	179
1227.000	175
1228.000	175
1229.000	178
1230.000	176
1231.000	179
1232.000	190
1233.000	185
1234.000	180
1235.000	174
1236.000	179
1237.000	177
1238.000	180
1239.000	183
1240.000	175
1241.000	182
1242.000	183
1243.000	174
1244.000	185
1245.000	184
1246.000	182
1247.000	187
1248.000	182
1249.000	174
1250.000	176
1251.000	186
1252.000	175
1253.000	176
1254.000	176
1255.000	183
1256.000	175
1257.000	170
1258.000	179
1259.000	176
1260.000	180
1261.000	175
1262.000	173
1263.000	178
1264.000	179
1265.000	176
1266.000	175
1267.000	173
1268.000	182
1269.000	167
1270.000	179
1271.000	176
1272.000	181
1273.000	178
1274.000	176
1275.000	178
1276.000	176
1277.000	175
1278.000	175
1279.000	181
1280.000	184
1281.000	174
1282.000	174
1283.000	186
1284.000	176
1285.000	175
1286.000	185
1287.000	183
1288.000	184
1289.000	187
1290.000	196
1291.000	184
1292.000	190
1293.000	191
1294.000	191
1295.000	198
1296.000	199
1297.000	202
1298.000	202
1299.000	203
1300.000	201
1301.000	214
1302.000	209
1303.000	212
1304.000	211
1305.000	206
1306.000	210
1307.000	210
1308.000	211
1309.000	203
1310.000	207
1311.000	201
1312.000	203
1313.000	198
1314.000	188
1315.000	187
1316.000	194
1317.000	193
1318.000	194
1319.000	184
1320.000	194
1321.000	190
1322.000	189
1323.000	186
1324.000	185
1325.000	180
1326.000	180
1327.000	188
1328.000	180
1329.000	180
1330.000	186
1331.000	184
1332.000	185
1333.000	187
1334.000	180
1335.000	190
1336.000	183
1337.000	185
1338.000	185
1339.000	187
1340.000	186
1341.000	181
1342.000	182
1343.000	178
1344.000	182
1345.000	193
1346.000	179
1347.000	182
1348.000	194
1349.000	184
1350.000	194
1351.000	179
1352.000	190
1353.000	195
1354.000	194
1355.000	198
1356.000	204
1357.000	198
1358.000	222
1359.000	224
1360.000	240
1361.000	252
1362.000	274
1363.000	283
1364.000	299
1365.000	330
1366.000	357
1367.000	384
1368.000	423
1369.000	464
1370.000	498
1371.000	534
1372.000	574
1373.000	604
1374.000	638
1375.000	673
1376.000	703
1377.000	719
1378.000	738
1379.000	754
1380.000	745
1381.000	751
1382.000	725
1383.000	708
1384.000	682
1385.000	645
1386.000	618
1387.000	582
1388.000	543
1389.000	514
1390.000	478
1391.000	436
1392.000	398
1393.000	359
1394.000	337
1395.000	307
1396.000	275
1397.000	261
1398.000	246
1399.000	228
1400.000	215
1401.000	206
1402.000	196
1403.000	197
1404.000	193
1405.000	192
1406.000	191
1407.000	184
1408.000	187
1409.000	180
1410.000	178
1411.000	187
1412.000	183
1413.000	180
1414.000	185
1415.000	178
1416.000	184
1417.000	178
1418.000	179
1419.000	188
1420.000	178
1421.000	181
1422.000	180
1423.000	180
1424.000	173
1425.000	186
1426.000	185
1427.000	181
1428.000	179
1429.000	177
1430.000	182
1431.000	179
1432.000	179
1433.000	181
1434.000	178
1435.000	185
1436.000	182
1437.000	181
1438.000	185
1439.000	189
1440.000	182
1441.000	178
1442.000	189
1443.000	181
1444.000	185
1445.000	191
1446.000	193
1447.000	186
1448.000	196
1449.000	191
1450.000	196
1451.000	201
1452.000	201
1453.000	200
1454.000	205
1455.000	199
1456.000	199
1457.000	202
1458.000	201
1459.000	201
1460.000	196
1461.000	197
1462.000	204
1463.000	189
1464.000	195
1465.000	188
1466.000	193
1467.000	196
1468.000	196
1469.000	204
1470.000	191
1471.000	191
1472.000	196
1473.000	193
1474.000	187
1475.000	200
1476.000	188
1477.000	192
1478.000	191
1479.000	188
1480.000	195
1481.000	184
1482.000	180
1483.000	188
1484.000	192
1485.000	190
1486.000	192
1487.000	193
1488.000	186
1489.000	186
1490.000	185
1491.000	189
1492.000	194
1493.000	188
1494.000	195
1495.000	199
1496.000	193
1497.000	197
1498.000	192
1499.000	188
1500.000	189
1501.000	192
1502.000	189
1503.000	194
1504.000	200
1505.000	183
1506.000	191
1507.000	197
1508.000	193
1509.000	202
1510.000	192
1511.000	201
1512.000	196
1513.000	200
1514.000	196
1515.000	200
1516.000	210
1517.000	203
1518.000	208
1519.000	207
1520.000	212
1521.000	222
1522.000	223
1523.000	223
1524.000	230
1525.000	234
1526.000	242
1527.000	237
1528.000	237
1529.000	266
1530.000	259
1531.000	253
1532.000	280
1533.000	276
1534.000	286
1535.000	309
1536.000	310
1537.000	315
1538.000	317
1539.000	333
1540.000	330
1541.000	329
1542.000	335
1543.000	337
1544.000	348
1545.000	342
1546.000	330
1547.000	327
1548.000	325
1549.000	323
1550.000	327
1551.000	307
1552.000	305
1553.000	289
1554.000	295
1555.000	287
1556.000	283
1557.000	291
1558.000	288
1559.000	277
1560.000	280
1561.000	281
1562.000	274
1563.000	281
1564.000	277
1565.000	299
1566.000	303
1567.000	307
1568.000	299
1569.000	313
1570.000	329
1571.000	328
1572.000	327
1573.000	343
1574.000	347
1575.000	363
1576.000	365
1577.000	376
1578.000	380
1579.000	399
1580.000	412
1581.000	416
1582.000	418
1583.000	432
1584.000	452
1585.000	445
1586.000	473
1587.000	485
1588.000	499
1589.000	512
1590.000	533
1591.000	527
1592.000	544
1593.000	563
1594.000	577
1595.000	584
1596.000	589
1597.000	607
1598.000	618
1599.000	622
1600.000	646
1601.000	639
1602.000	645
1603.000	654
1604.000	657
1605.000	662
1606.000	660
1607.000	658
1608.000	666
1609.000	666
1610.000	662
1611.000	673
1612.000	649
1613.000	660
1614.000	658
1615.000	646
1616.000	631
1617.000	617
1618.000	606
1619.000	600
1620.000	604
1621.000	580
1622.000	578
1623.000	572
1624.000	552
1625.000	538
1626.000	514
1627.000	527
1628.000	505
1629.000	494
1630.000	465
1631.000	465
1632.000	449
1633.000	432
1634.000	420
1635.000	407
1636.000	408
1637.000	384
1638.000	383
1639.000	357
1640.000	351
1641.000	349
1642.000	336
1643.000	315
1644.000	308
1645.000	300
1646.000	297
1647.000	286
1648.000	284
1649.000	280
1650.000	271
1651.000	255
1652.000	258
1653.000	259
1654.000	246
1655.000	243
1656.000	234
1657.000	239
1658.000	223
1659.000	223
1660.000	211
1661.000	216
1662.000	209
1663.000	209
1664.000	205
1665.000	204
1666.000	208
1667.000	201
1668.000	201
1669.000	194
1670.000	194
1671.000	189
1672.000	188
1673.000	202
1674.000	203
1675.000	197
1676.000	202
1677.000	210
1678.000	212
1679.000	216
1680.000	223
1681.000	246
1682.000	252
1683.000	256
1684.000	276
1685.000	291
1686.000	311
1687.000	327
1688.000	347
1689.000	360
1690.000	389
1691.000	416
1692.000	435
1693.000	443
1694.000	471
1695.000	490
1696.000	500
1697.000	517
1698.000	544
1699.000	546
1700.000	556
1701.000	567
1702.000	561
1703.000	540
1704.000	557
1705.000	547
1706.000	531
1707.000	517
1708.000	488
1709.000	469
1710.000	439
1711.000	414
1712.000	398
1713.000	383
1714.000	332
1715.000	321
1716.000	298
1717.000	282
1718.000	262
1719.000	244
1720.000	231
1721.000	219
1722.000	195
1723.000	196
1724.000	183
1725.000	179
1726.000	175
1727.000	164
1728.000	168
1729.000	165
1730.000	159
1731.000	154
1732.000	152
1733.000	157
1734.000	155
1735.000	155
1736.000	149
1737.000	152
1738.000	150
1739.000	152
1740.000	152
1741.000	157
1742.000	149
1743.000	153
1744.000	153
1745.000	147
1746.000	154
1747.000	153
1748.000	153
1749.000	152
1750.000	153
1751.000	158
1752.000	153
1753.000	159
1754.000	158
1755.000	159
1756.000	164
1757.000	167
1758.000	159
1759.000	166
1760.000	163
1761.000	172
1762.000	167
1763.000	171
1764.000	171
1765.000	171
1766.000	179
1767.000	170
1768.000	180
1769.000	179
1770.000	186
1771.000	185
1772.000	188
1773.000	195
1774.000	193
1775.000	195
1776.000	190
1777.000	194
1778.000	201
1779.000	192
1780.000	203
1781.000	201
1782.000	199
1783.000	214
1784.000	208
1785.000	200
1786.000	204
1787.000	203
1788.000	210
1789.000	214
1790.000	205
1791.000	211
1792.000	211
1793.000	209
1794.000	207
1795.000	210
1796.000	208
1797.000	211
1798.000	207
1799.000	209
1800.000	206
1801.000	200
1802.000	213
1803.000	203
1804.000	207
1805.000	200
1806.000	198
1807.000	199
1808.000	194
1809.000	190
1810.000	191
1811.000	185
1812.000	193
1813.000	180
1814.000	190
1815.000	180
1816.000	176
1817.000	174
1818.000	169
1819.000	170
1820.000	169
1821.000	160
1822.000	160
1823.000	162
1824.000	157
1825.000	153
1826.000	152
1827.000	155
1828.000	145
1829.000	139
1830.000	144
1831.000	138
1832.000	133
1833.000	133
1834.000	136
1835.000	134
1836.000	130
1837.000	123
1838.000	127
1839.000	127
1840.000	123
1841.000	119
1842.000	116
1843.000	118
1844.000	119
1845.000	114
1846.000	103
1847.000	115
1848.000	110
1849.000	107
1850.000	104
1851.000	102
1852.000	103
1853.000	100
1854.000	106
1855.000	99
1856.000	96
1857.000	100
1858.000	93
1859.000	96
1860.000	93
1861.000	93
1862.000	92
1863.000	94
1864.000	97
1865.000	86
1866.000	88
1867.000	90
1868.000	85
1869.000	83
1870.000	85
1871.000	82
1872.000	82
1873.000	82
1874.000	79
1875.000	82
1876.000	81
1877.000	76
1878.000	80
1879.000	82
1880.000	82
1881.000	78
1882.000	81
1883.000	79
1884.000	81
1885.000	85
1886.000	78
1887.000	77
1888.000	86
1889.000	78
1890.000	77
1891.000	84
1892.000	81
1893.000	88
1894.000	89
1895.000	87
1896.000	90
1897.000	92
1898.000	94
1899.000	98
1900.000	97
1901.000	108
1902.000	111
1903.000	107
1904.000	113
1905.000	118
1906.000	121
1907.000	122
1908.000	125
1909.000	128
1910.000	122
1911.000	126
1912.000	135
1913.000	128
1914.000	121
1915.000	122
1916.000	123
1917.000	118
1918.000	120
1919.000	106
1920.000	107
1921.000	110
1922.000	107
1923.000	93
1924.000	92
1925.000	90
1926.000	85
1927.000	86
1928.000	82
1929.000	81
1930.000	81
1931.000	77
1932.000	75
1933.000	73
1934.000	78
1935.000	72
1936.000	72
1937.000	70
1938.000	75
1939.000	69
1940.000	67
1941.000	73
1942.000	68
1943.000	73
1944.000	75
1945.000	76
1946.000	69
1947.000	73
1948.000	75
1949.000	70
1950.000	66
1951.000	67
1952.000	66
1953.000	67
1954.000	62
1955.000	61
1956.000	63
1957.000	65
1958.000	61
1959.000	60
1960.000	60
1961.000	58
1962.000	57
1963.000	59
1964.000	59
1965.000	58
1966.000	56
1967.000	59
1968.000	56
1969.000	55
1970.000	55
1971.000	57
1972.000	56
1973.000	56
1974.000	56
1975.000	52
1976.000	52
1977.000	54
1978.000	57
1979.000	58
1980.000	56
1981.000	52
1982.000	52
1983.000	59
1984.000	57
1985.000	52
1986.000	56
1987.000	58
1988.000	56
1989.000	53
1990.000	57
1991.000	52
1992.000	53
1993.000	50
1994.000	53
1995.000	52
1996.000	54
1997.000	51
1998.000	55
1999.000	52
2000.000	54
2001.000	58
2002.000	51
2003.000	56
2004.000	52
2005.000	54
2006.000	51
2007.000	55
2008.000	49
2009.000	50
2010.000	51
2011.000	53
2012.000	51
2013.000	49
2014.000	52
2015.000	53
2016.000	55
2017.000	52
2018.000	51
2019.000	53
2020.000	48
2021.000	52
2022.000	50
2023.000	51
2024.000	56
2025.000	54
2026.000	49
2027.000	50
2028.000	55
2029.000	52
2030.000	51
2031.000	53
2032.000	48
2033.000	48
2034.000	51
2035.000	50
2036.000	45
2037.000	51
2038.000	47
2039.000	45
2040.000	49
2041.000	51
2042.000	48
2043.000	50
2044.000	48
2045.000	49
2046.000	49
2047.000	48
2048.000	0
