Date:	17-Sep-20		Time:	11:47 PM		Version no:	0.00		Project name:	55		Sample name:	222		Section name:	section		Position	0.000000	mm	E0	0.000000	keV	E1	1.000000	keV/channel	sample surface	2.000000	cm	Tube anode:	Mo		Tube voltage:	30	kV	Tube current:	30	mA	gain	15		std. database			resultfile	result		matrix element	11		sample thickness	1.000000		air passage	0.560000	cm	comments	not in position		peaking_time	0.300000	m-sec	trigger_threshold	40.000000	V	mca_bin_width	2.000000	no:	number_mca_channels	2048.000000	no:	gap_time	2048.000000	m-sec	trigger_peaking_time	2048.000000	m-sec	GAINDAC	400		HIGHGAIN	400		TAURC	400		RCTAU	400		RCTAUFRAC	400		livetime	13.014294	seconds	runtime	15.000232	seconds	input_count_rate	80431.410221	cps	output_count_rate	69782.785033	cps	triggers	1173264	seconds	events_in_run	1020480	seconds	channel	content		1.000	0
2.000	0
3.000	0
4.000	0
5.000	0
6.000	0
7.000	0
8.000	0
9.000	0
10.000	0
11.000	0
12.000	0
13.000	0
14.000	0
15.000	0
16.000	0
17.000	0
18.000	0
19.000	0
20.000	0
21.000	0
22.000	0
23.000	0
24.000	0
25.000	0
26.000	0
27.000	0
28.000	0
29.000	0
30.000	0
31.000	0
32.000	1
33.000	0
34.000	0
35.000	0
36.000	0
37.000	0
38.000	0
39.000	0
40.000	0
41.000	0
42.000	0
43.000	0
44.000	0
45.000	0
46.000	0
47.000	0
48.000	0
49.000	0
50.000	1
51.000	1
52.000	2
53.000	2
54.000	4
55.000	5
56.000	6
57.000	9
58.000	12
59.000	18
60.000	23
61.000	28
62.000	32
63.000	30
64.000	31
65.000	29
66.000	26
67.000	26
68.000	29
69.000	26
70.000	24
71.000	24
72.000	23
73.000	25
74.000	24
75.000	27
76.000	24
77.000	23
78.000	24
79.000	27
80.000	24
81.000	23
82.000	28
83.000	26
84.000	24
85.000	26
86.000	28
87.000	25
88.000	23
89.000	23
90.000	22
91.000	23
92.000	23
93.000	22
94.000	23
95.000	21
96.000	24
97.000	21
98.000	20
99.000	20
100.000	18
101.000	22
102.000	19
103.000	19
104.000	20
105.000	19
106.000	18
107.000	18
108.000	21
109.000	18
110.000	17
111.000	18
112.000	18
113.000	16
114.000	18
115.000	17
116.000	18
117.000	18
118.000	16
119.000	17
120.000	15
121.000	17
122.000	18
123.000	18
124.000	16
125.000	15
126.000	14
127.000	14
128.000	14
129.000	13
130.000	16
131.000	14
132.000	15
133.000	13
134.000	15
135.000	14
136.000	15
137.000	15
138.000	18
139.000	18
140.000	19
141.000	21
142.000	24
143.000	29
144.000	30
145.000	32
146.000	32
147.000	32
148.000	32
149.000	32
150.000	26
151.000	25
152.000	28
153.000	29
154.000	25
155.000	21
156.000	22
157.000	21
158.000	21
159.000	19
160.000	15
161.000	18
162.000	19
163.000	29
164.000	36
165.000	54
166.000	72
167.000	98
168.000	118
169.000	142
170.000	146
171.000	154
172.000	147
173.000	125
174.000	104
175.000	88
176.000	60
177.000	50
178.000	39
179.000	32
180.000	30
181.000	26
182.000	27
183.000	27
184.000	27
185.000	29
186.000	35
187.000	42
188.000	46
189.000	53
190.000	58
191.000	62
192.000	62
193.000	54
194.000	45
195.000	40
196.000	34
197.000	27
198.000	21
199.000	19
200.000	17
201.000	13
202.000	14
203.000	12
204.000	11
205.000	11
206.000	12
207.000	12
208.000	11
209.000	12
210.000	12
211.000	11
212.000	12
213.000	12
214.000	13
215.000	12
216.000	12
217.000	12
218.000	13
219.000	14
220.000	16
221.000	17
222.000	17
223.000	21
224.000	18
225.000	19
226.000	16
227.000	15
228.000	13
229.000	14
230.000	11
231.000	11
232.000	9
233.000	11
234.000	10
235.000	8
236.000	7
237.000	8
238.000	9
239.000	8
240.000	10
241.000	10
242.000	9
243.000	10
244.000	10
245.000	9
246.000	10
247.000	12
248.000	14
249.000	24
250.000	29
251.000	32
252.000	44
253.000	58
254.000	65
255.000	76
256.000	88
257.000	83
258.000	82
259.000	78
260.000	69
261.000	54
262.000	43
263.000	35
264.000	26
265.000	25
266.000	19
267.000	21
268.000	18
269.000	19
270.000	19
271.000	24
272.000	22
273.000	22
274.000	21
275.000	18
276.000	21
277.000	20
278.000	18
279.000	18
280.000	20
281.000	18
282.000	24
283.000	27
284.000	32
285.000	40
286.000	49
287.000	53
288.000	59
289.000	63
290.000	59
291.000	59
292.000	58
293.000	52
294.000	44
295.000	32
296.000	30
297.000	26
298.000	19
299.000	15
300.000	14
301.000	10
302.000	9
303.000	12
304.000	12
305.000	14
306.000	15
307.000	16
308.000	17
309.000	19
310.000	26
311.000	28
312.000	37
313.000	52
314.000	77
315.000	105
316.000	145
317.000	219
318.000	293
319.000	393
320.000	513
321.000	613
322.000	731
323.000	804
324.000	850
325.000	854
326.000	813
327.000	741
328.000	642
329.000	529
330.000	407
331.000	317
332.000	213
333.000	151
334.000	98
335.000	68
336.000	47
337.000	34
338.000	24
339.000	25
340.000	25
341.000	32
342.000	38
343.000	47
344.000	64
345.000	79
346.000	108
347.000	141
348.000	193
349.000	262
350.000	372
351.000	499
352.000	708
353.000	983
354.000	1317
355.000	1781
356.000	2278
357.000	2801
358.000	3324
359.000	3803
360.000	4131
361.000	4308
362.000	4251
363.000	4046
364.000	3656
365.000	3138
366.000	2585
367.000	2038
368.000	1523
369.000	1086
370.000	759
371.000	500
372.000	318
373.000	208
374.000	128
375.000	80
376.000	58
377.000	40
378.000	40
379.000	44
380.000	48
381.000	68
382.000	83
383.000	105
384.000	148
385.000	198
386.000	262
387.000	334
388.000	399
389.000	483
390.000	550
391.000	596
392.000	629
393.000	648
394.000	626
395.000	576
396.000	504
397.000	440
398.000	364
399.000	281
400.000	220
401.000	154
402.000	108
403.000	79
404.000	55
405.000	40
406.000	25
407.000	17
408.000	16
409.000	12
410.000	11
411.000	10
412.000	10
413.000	10
414.000	9
415.000	11
416.000	10
417.000	9
418.000	9
419.000	11
420.000	12
421.000	11
422.000	13
423.000	15
424.000	17
425.000	18
426.000	27
427.000	31
428.000	50
429.000	73
430.000	108
431.000	147
432.000	215
433.000	286
434.000	388
435.000	496
436.000	629
437.000	735
438.000	849
439.000	959
440.000	981
441.000	1007
442.000	995
443.000	955
444.000	858
445.000	744
446.000	636
447.000	519
448.000	418
449.000	322
450.000	256
451.000	187
452.000	158
453.000	124
454.000	107
455.000	97
456.000	82
457.000	77
458.000	67
459.000	63
460.000	55
461.000	49
462.000	45
463.000	37
464.000	36
465.000	36
466.000	35
467.000	35
468.000	42
469.000	47
470.000	53
471.000	58
472.000	67
473.000	79
474.000	93
475.000	97
476.000	121
477.000	136
478.000	157
479.000	170
480.000	186
481.000	189
482.000	191
483.000	197
484.000	188
485.000	174
486.000	162
487.000	140
488.000	122
489.000	102
490.000	83
491.000	68
492.000	55
493.000	46
494.000	39
495.000	34
496.000	31
497.000	28
498.000	28
499.000	27
500.000	27
501.000	28
502.000	24
503.000	30
504.000	27
505.000	29
506.000	33
507.000	36
508.000	33
509.000	35
510.000	38
511.000	40
512.000	40
513.000	42
514.000	47
515.000	44
516.000	46
517.000	48
518.000	45
519.000	49
520.000	57
521.000	55
522.000	54
523.000	61
524.000	59
525.000	68
526.000	75
527.000	75
528.000	74
529.000	74
530.000	71
531.000	70
532.000	68
533.000	61
534.000	60
535.000	54
536.000	47
537.000	46
538.000	45
539.000	37
540.000	37
541.000	36
542.000	37
543.000	38
544.000	36
545.000	34
546.000	34
547.000	33
548.000	36
549.000	36
550.000	32
551.000	34
552.000	36
553.000	35
554.000	34
555.000	35
556.000	37
557.000	38
558.000	40
559.000	38
560.000	45
561.000	49
562.000	58
563.000	59
564.000	76
565.000	84
566.000	112
567.000	124
568.000	165
569.000	202
570.000	233
571.000	282
572.000	312
573.000	350
574.000	371
575.000	389
576.000	391
577.000	391
578.000	390
579.000	344
580.000	328
581.000	291
582.000	251
583.000	216
584.000	180
585.000	149
586.000	126
587.000	104
588.000	85
589.000	74
590.000	71
591.000	63
592.000	58
593.000	57
594.000	59
595.000	59
596.000	60
597.000	57
598.000	62
599.000	68
600.000	72
601.000	73
602.000	79
603.000	89
604.000	103
605.000	123
606.000	157
607.000	192
608.000	264
609.000	380
610.000	543
611.000	794
612.000	1102
613.000	1599
614.000	2179
615.000	2984
616.000	3975
617.000	5118
618.000	6389
619.000	7798
620.000	9278
621.000	10694
622.000	12043
623.000	13062
624.000	13723
625.000	14107
626.000	14041
627.000	13543
628.000	12679
629.000	11415
630.000	10136
631.000	8658
632.000	7177
633.000	5795
634.000	4585
635.000	3506
636.000	2630
637.000	1906
638.000	1353
639.000	945
640.000	651
641.000	449
642.000	318
643.000	226
644.000	171
645.000	131
646.000	112
647.000	96
648.000	88
649.000	79
650.000	81
651.000	80
652.000	76
653.000	75
654.000	79
655.000	79
656.000	81
657.000	76
658.000	83
659.000	82
660.000	86
661.000	86
662.000	89
663.000	92
664.000	95
665.000	101
666.000	107
667.000	112
668.000	113
669.000	123
670.000	139
671.000	147
672.000	170
673.000	194
674.000	236
675.000	294
676.000	355
677.000	444
678.000	548
679.000	687
680.000	829
681.000	1015
682.000	1222
683.000	1481
684.000	1619
685.000	1859
686.000	2026
687.000	2163
688.000	2243
689.000	2269
690.000	2254
691.000	2174
692.000	2066
693.000	1875
694.000	1673
695.000	1438
696.000	1234
697.000	1028
698.000	840
699.000	667
700.000	522
701.000	405
702.000	306
703.000	238
704.000	192
705.000	141
706.000	114
707.000	97
708.000	85
709.000	81
710.000	70
711.000	71
712.000	69
713.000	67
714.000	67
715.000	71
716.000	73
717.000	73
718.000	79
719.000	79
720.000	80
721.000	82
722.000	86
723.000	83
724.000	89
725.000	98
726.000	97
727.000	92
728.000	100
729.000	98
730.000	95
731.000	96
732.000	90
733.000	93
734.000	94
735.000	89
736.000	89
737.000	80
738.000	89
739.000	77
740.000	77
741.000	79
742.000	77
743.000	73
744.000	75
745.000	72
746.000	72
747.000	75
748.000	78
749.000	72
750.000	71
751.000	75
752.000	74
753.000	74
754.000	73
755.000	76
756.000	75
757.000	81
758.000	75
759.000	85
760.000	86
761.000	87
762.000	83
763.000	76
764.000	85
765.000	87
766.000	84
767.000	86
768.000	86
769.000	91
770.000	94
771.000	96
772.000	92
773.000	99
774.000	99
775.000	105
776.000	109
777.000	108
778.000	110
779.000	111
780.000	121
781.000	129
782.000	127
783.000	134
784.000	141
785.000	135
786.000	139
787.000	146
788.000	152
789.000	143
790.000	158
791.000	154
792.000	158
793.000	159
794.000	159
795.000	164
796.000	158
797.000	156
798.000	161
799.000	164
800.000	167
801.000	162
802.000	164
803.000	164
804.000	165
805.000	174
806.000	178
807.000	183
808.000	188
809.000	204
810.000	213
811.000	220
812.000	231
813.000	245
814.000	264
815.000	276
816.000	302
817.000	302
818.000	301
819.000	314
820.000	311
821.000	310
822.000	292
823.000	279
824.000	269
825.000	247
826.000	237
827.000	217
828.000	201
829.000	184
830.000	177
831.000	174
832.000	160
833.000	160
834.000	160
835.000	157
836.000	160
837.000	157
838.000	170
839.000	166
840.000	172
841.000	174
842.000	171
843.000	182
844.000	182
845.000	177
846.000	173
847.000	164
848.000	164
849.000	155
850.000	155
851.000	147
852.000	145
853.000	138
854.000	137
855.000	136
856.000	127
857.000	124
858.000	130
859.000	121
860.000	129
861.000	124
862.000	125
863.000	126
864.000	126
865.000	125
866.000	129
867.000	125
868.000	125
869.000	129
870.000	127
871.000	129
872.000	135
873.000	135
874.000	130
875.000	126
876.000	141
877.000	130
878.000	133
879.000	132
880.000	137
881.000	138
882.000	129
883.000	135
884.000	136
885.000	136
886.000	135
887.000	136
888.000	139
889.000	147
890.000	147
891.000	145
892.000	140
893.000	154
894.000	156
895.000	158
896.000	162
897.000	159
898.000	167
899.000	166
900.000	178
901.000	173
902.000	177
903.000	183
904.000	184
905.000	181
906.000	187
907.000	185
908.000	185
909.000	188
910.000	197
911.000	195
912.000	194
913.000	193
914.000	194
915.000	195
916.000	191
917.000	192
918.000	191
919.000	195
920.000	208
921.000	202
922.000	203
923.000	201
924.000	205
925.000	203
926.000	206
927.000	210
928.000	206
929.000	211
930.000	216
931.000	227
932.000	228
933.000	228
934.000	243
935.000	246
936.000	249
937.000	260
938.000	269
939.000	262
940.000	278
941.000	279
942.000	283
943.000	283
944.000	271
945.000	282
946.000	275
947.000	271
948.000	266
949.000	258
950.000	249
951.000	233
952.000	227
953.000	225
954.000	209
955.000	207
956.000	197
957.000	203
958.000	193
959.000	197
960.000	191
961.000	190
962.000	192
963.000	194
964.000	192
965.000	195
966.000	193
967.000	193
968.000	194
969.000	200
970.000	202
971.000	197
972.000	199
973.000	203
974.000	201
975.000	194
976.000	197
977.000	188
978.000	189
979.000	178
980.000	176
981.000	178
982.000	180
983.000	166
984.000	165
985.000	159
986.000	156
987.000	157
988.000	160
989.000	160
990.000	159
991.000	157
992.000	154
993.000	153
994.000	155
995.000	151
996.000	143
997.000	147
998.000	152
999.000	151
1000.000	152
1001.000	146
1002.000	143
1003.000	152
1004.000	143
1005.000	148
1006.000	156
1007.000	146
1008.000	153
1009.000	148
1010.000	149
1011.000	152
1012.000	154
1013.000	147
1014.000	143
1015.000	154
1016.000	149
1017.000	153
1018.000	145
1019.000	152
1020.000	148
1021.000	152
1022.000	152
1023.000	154
1024.000	150
1025.000	153
1026.000	157
1027.000	158
1028.000	149
1029.000	157
1030.000	152
1031.000	155
1032.000	153
1033.000	159
1034.000	155
1035.000	158
1036.000	172
1037.000	151
1038.000	152
1039.000	155
1040.000	159
1041.000	155
1042.000	152
1043.000	156
1044.000	158
1045.000	160
1046.000	155
1047.000	161
1048.000	168
1049.000	165
1050.000	163
1051.000	165
1052.000	173
1053.000	169
1054.000	157
1055.000	164
1056.000	171
1057.000	167
1058.000	171
1059.000	170
1060.000	169
1061.000	166
1062.000	177
1063.000	172
1064.000	176
1065.000	167
1066.000	171
1067.000	165
1068.000	166
1069.000	175
1070.000	174
1071.000	164
1072.000	170
1073.000	172
1074.000	174
1075.000	166
1076.000	172
1077.000	169
1078.000	174
1079.000	167
1080.000	169
1081.000	169
1082.000	169
1083.000	175
1084.000	170
1085.000	164
1086.000	174
1087.000	178
1088.000	171
1089.000	164
1090.000	176
1091.000	178
1092.000	178
1093.000	179
1094.000	181
1095.000	177
1096.000	186
1097.000	181
1098.000	190
1099.000	186
1100.000	186
1101.000	184
1102.000	185
1103.000	186
1104.000	190
1105.000	184
1106.000	178
1107.000	186
1108.000	184
1109.000	170
1110.000	173
1111.000	176
1112.000	180
1113.000	175
1114.000	170
1115.000	169
1116.000	169
1117.000	174
1118.000	166
1119.000	178
1120.000	169
1121.000	175
1122.000	175
1123.000	163
1124.000	170
1125.000	172
1126.000	178
1127.000	161
1128.000	169
1129.000	173
1130.000	171
1131.000	171
1132.000	170
1133.000	174
1134.000	173
1135.000	176
1136.000	169
1137.000	178
1138.000	171
1139.000	178
1140.000	176
1141.000	172
1142.000	181
1143.000	167
1144.000	181
1145.000	167
1146.000	167
1147.000	170
1148.000	178
1149.000	175
1150.000	180
1151.000	172
1152.000	183
1153.000	178
1154.000	175
1155.000	182
1156.000	188
1157.000	191
1158.000	188
1159.000	187
1160.000	188
1161.000	196
1162.000	199
1163.000	196
1164.000	190
1165.000	198
1166.000	191
1167.000	186
1168.000	189
1169.000	195
1170.000	182
1171.000	182
1172.000	176
1173.000	176
1174.000	179
1175.000	173
1176.000	173
1177.000	172
1178.000	178
1179.000	169
1180.000	177
1181.000	179
1182.000	176
1183.000	159
1184.000	171
1185.000	169
1186.000	178
1187.000	169
1188.000	170
1189.000	169
1190.000	169
1191.000	171
1192.000	172
1193.000	173
1194.000	178
1195.000	173
1196.000	170
1197.000	167
1198.000	164
1199.000	175
1200.000	184
1201.000	176
1202.000	179
1203.000	171
1204.000	167
1205.000	164
1206.000	177
1207.000	175
1208.000	173
1209.000	172
1210.000	176
1211.000	176
1212.000	181
1213.000	178
1214.000	175
1215.000	172
1216.000	175
1217.000	176
1218.000	170
1219.000	176
1220.000	178
1221.000	172
1222.000	172
1223.000	179
1224.000	182
1225.000	178
1226.000	186
1227.000	175
1228.000	184
1229.000	179
1230.000	178
1231.000	183
1232.000	175
1233.000	187
1234.000	187
1235.000	183
1236.000	177
1237.000	181
1238.000	186
1239.000	186
1240.000	182
1241.000	184
1242.000	187
1243.000	183
1244.000	188
1245.000	187
1246.000	188
1247.000	187
1248.000	193
1249.000	188
1250.000	191
1251.000	187
1252.000	186
1253.000	185
1254.000	193
1255.000	193
1256.000	184
1257.000	189
1258.000	192
1259.000	191
1260.000	195
1261.000	184
1262.000	191
1263.000	179
1264.000	187
1265.000	184
1266.000	178
1267.000	189
1268.000	180
1269.000	185
1270.000	189
1271.000	185
1272.000	192
1273.000	186
1274.000	191
1275.000	185
1276.000	189
1277.000	192
1278.000	184
1279.000	192
1280.000	187
1281.000	184
1282.000	186
1283.000	183
1284.000	188
1285.000	185
1286.000	188
1287.000	199
1288.000	191
1289.000	192
1290.000	199
1291.000	204
1292.000	201
1293.000	210
1294.000	214
1295.000	210
1296.000	222
1297.000	230
1298.000	230
1299.000	236
1300.000	242
1301.000	240
1302.000	247
1303.000	258
1304.000	245
1305.000	252
1306.000	248
1307.000	257
1308.000	250
1309.000	237
1310.000	232
1311.000	234
1312.000	230
1313.000	229
1314.000	223
1315.000	220
1316.000	214
1317.000	205
1318.000	212
1319.000	205
1320.000	207
1321.000	198
1322.000	201
1323.000	191
1324.000	202
1325.000	189
1326.000	189
1327.000	193
1328.000	191
1329.000	196
1330.000	188
1331.000	190
1332.000	192
1333.000	197
1334.000	191
1335.000	188
1336.000	185
1337.000	186
1338.000	194
1339.000	191
1340.000	188
1341.000	185
1342.000	192
1343.000	192
1344.000	190
1345.000	194
1346.000	190
1347.000	190
1348.000	190
1349.000	188
1350.000	187
1351.000	190
1352.000	192
1353.000	196
1354.000	201
1355.000	198
1356.000	209
1357.000	203
1358.000	208
1359.000	210
1360.000	226
1361.000	228
1362.000	246
1363.000	261
1364.000	287
1365.000	305
1366.000	318
1367.000	335
1368.000	367
1369.000	392
1370.000	412
1371.000	453
1372.000	463
1373.000	494
1374.000	523
1375.000	537
1376.000	566
1377.000	577
1378.000	587
1379.000	602
1380.000	602
1381.000	595
1382.000	580
1383.000	571
1384.000	548
1385.000	542
1386.000	507
1387.000	476
1388.000	453
1389.000	407
1390.000	399
1391.000	360
1392.000	335
1393.000	308
1394.000	290
1395.000	277
1396.000	263
1397.000	248
1398.000	235
1399.000	222
1400.000	213
1401.000	198
1402.000	201
1403.000	201
1404.000	190
1405.000	192
1406.000	191
1407.000	195
1408.000	183
1409.000	196
1410.000	184
1411.000	191
1412.000	184
1413.000	192
1414.000	190
1415.000	181
1416.000	182
1417.000	183
1418.000	188
1419.000	189
1420.000	186
1421.000	191
1422.000	183
1423.000	183
1424.000	188
1425.000	190
1426.000	187
1427.000	191
1428.000	188
1429.000	183
1430.000	187
1431.000	188
1432.000	183
1433.000	192
1434.000	191
1435.000	186
1436.000	186
1437.000	193
1438.000	192
1439.000	186
1440.000	196
1441.000	184
1442.000	187
1443.000	190
1444.000	193
1445.000	192
1446.000	209
1447.000	204
1448.000	205
1449.000	207
1450.000	206
1451.000	210
1452.000	213
1453.000	213
1454.000	216
1455.000	220
1456.000	212
1457.000	222
1458.000	220
1459.000	218
1460.000	217
1461.000	223
1462.000	211
1463.000	209
1464.000	212
1465.000	208
1466.000	205
1467.000	209
1468.000	208
1469.000	209
1470.000	197
1471.000	203
1472.000	197
1473.000	199
1474.000	195
1475.000	195
1476.000	195
1477.000	202
1478.000	199
1479.000	192
1480.000	197
1481.000	193
1482.000	197
1483.000	196
1484.000	195
1485.000	203
1486.000	197
1487.000	196
1488.000	196
1489.000	192
1490.000	188
1491.000	199
1492.000	189
1493.000	192
1494.000	199
1495.000	194
1496.000	202
1497.000	206
1498.000	193
1499.000	202
1500.000	199
1501.000	201
1502.000	201
1503.000	188
1504.000	202
1505.000	195
1506.000	198
1507.000	202
1508.000	203
1509.000	209
1510.000	206
1511.000	213
1512.000	207
1513.000	219
1514.000	212
1515.000	222
1516.000	228
1517.000	235
1518.000	247
1519.000	262
1520.000	259
1521.000	266
1522.000	279
1523.000	288
1524.000	301
1525.000	308
1526.000	326
1527.000	347
1528.000	353
1529.000	368
1530.000	383
1531.000	396
1532.000	405
1533.000	425
1534.000	431
1535.000	444
1536.000	451
1537.000	459
1538.000	443
1539.000	453
1540.000	451
1541.000	438
1542.000	448
1543.000	433
1544.000	434
1545.000	415
1546.000	407
1547.000	388
1548.000	375
1549.000	363
1550.000	353
1551.000	336
1552.000	338
1553.000	322
1554.000	310
1555.000	318
1556.000	303
1557.000	288
1558.000	294
1559.000	295
1560.000	293
1561.000	291
1562.000	294
1563.000	301
1564.000	303
1565.000	297
1566.000	298
1567.000	309
1568.000	316
1569.000	319
1570.000	323
1571.000	338
1572.000	352
1573.000	347
1574.000	350
1575.000	381
1576.000	378
1577.000	397
1578.000	394
1579.000	412
1580.000	413
1581.000	427
1582.000	437
1583.000	441
1584.000	457
1585.000	477
1586.000	484
1587.000	513
1588.000	506
1589.000	526
1590.000	539
1591.000	556
1592.000	565
1593.000	578
1594.000	591
1595.000	616
1596.000	603
1597.000	631
1598.000	642
1599.000	660
1600.000	651
1601.000	648
1602.000	658
1603.000	674
1604.000	691
1605.000	680
1606.000	708
1607.000	691
1608.000	696
1609.000	700
1610.000	703
1611.000	717
1612.000	710
1613.000	687
1614.000	686
1615.000	684
1616.000	683
1617.000	667
1618.000	661
1619.000	658
1620.000	635
1621.000	622
1622.000	617
1623.000	597
1624.000	607
1625.000	586
1626.000	572
1627.000	550
1628.000	538
1629.000	534
1630.000	511
1631.000	483
1632.000	484
1633.000	461
1634.000	446
1635.000	430
1636.000	422
1637.000	410
1638.000	393
1639.000	386
1640.000	370
1641.000	363
1642.000	353
1643.000	347
1644.000	327
1645.000	321
1646.000	327
1647.000	308
1648.000	304
1649.000	286
1650.000	289
1651.000	271
1652.000	274
1653.000	258
1654.000	264
1655.000	259
1656.000	240
1657.000	236
1658.000	241
1659.000	236
1660.000	230
1661.000	231
1662.000	228
1663.000	218
1664.000	214
1665.000	216
1666.000	221
1667.000	217
1668.000	210
1669.000	212
1670.000	213
1671.000	208
1672.000	211
1673.000	209
1674.000	215
1675.000	211
1676.000	213
1677.000	213
1678.000	213
1679.000	235
1680.000	243
1681.000	253
1682.000	260
1683.000	270
1684.000	294
1685.000	311
1686.000	317
1687.000	341
1688.000	353
1689.000	382
1690.000	404
1691.000	417
1692.000	444
1693.000	452
1694.000	486
1695.000	497
1696.000	539
1697.000	543
1698.000	546
1699.000	555
1700.000	578
1701.000	576
1702.000	571
1703.000	571
1704.000	557
1705.000	562
1706.000	534
1707.000	516
1708.000	519
1709.000	491
1710.000	451
1711.000	439
1712.000	413
1713.000	393
1714.000	365
1715.000	356
1716.000	328
1717.000	301
1718.000	290
1719.000	283
1720.000	260
1721.000	247
1722.000	239
1723.000	227
1724.000	217
1725.000	214
1726.000	210
1727.000	201
1728.000	199
1729.000	189
1730.000	180
1731.000	174
1732.000	177
1733.000	164
1734.000	172
1735.000	171
1736.000	169
1737.000	166
1738.000	167
1739.000	159
1740.000	165
1741.000	165
1742.000	157
1743.000	164
1744.000	166
1745.000	156
1746.000	163
1747.000	168
1748.000	172
1749.000	160
1750.000	172
1751.000	163
1752.000	168
1753.000	172
1754.000	170
1755.000	174
1756.000	173
1757.000	170
1758.000	162
1759.000	172
1760.000	174
1761.000	183
1762.000	174
1763.000	172
1764.000	173
1765.000	178
1766.000	175
1767.000	176
1768.000	179
1769.000	188
1770.000	191
1771.000	186
1772.000	190
1773.000	194
1774.000	197
1775.000	194
1776.000	196
1777.000	197
1778.000	200
1779.000	204
1780.000	209
1781.000	202
1782.000	211
1783.000	212
1784.000	208
1785.000	207
1786.000	212
1787.000	214
1788.000	210
1789.000	213
1790.000	215
1791.000	219
1792.000	219
1793.000	213
1794.000	219
1795.000	217
1796.000	210
1797.000	225
1798.000	214
1799.000	216
1800.000	213
1801.000	219
1802.000	216
1803.000	215
1804.000	213
1805.000	205
1806.000	202
1807.000	212
1808.000	206
1809.000	203
1810.000	193
1811.000	191
1812.000	195
1813.000	196
1814.000	188
1815.000	191
1816.000	185
1817.000	179
1818.000	185
1819.000	184
1820.000	175
1821.000	170
1822.000	172
1823.000	164
1824.000	167
1825.000	162
1826.000	165
1827.000	154
1828.000	152
1829.000	149
1830.000	145
1831.000	143
1832.000	148
1833.000	133
1834.000	138
1835.000	138
1836.000	132
1837.000	128
1838.000	127
1839.000	132
1840.000	123
1841.000	122
1842.000	122
1843.000	119
1844.000	126
1845.000	124
1846.000	117
1847.000	116
1848.000	111
1849.000	116
1850.000	116
1851.000	110
1852.000	109
1853.000	101
1854.000	107
1855.000	109
1856.000	98
1857.000	105
1858.000	102
1859.000	100
1860.000	94
1861.000	96
1862.000	96
1863.000	91
1864.000	89
1865.000	99
1866.000	88
1867.000	89
1868.000	87
1869.000	87
1870.000	86
1871.000	88
1872.000	87
1873.000	89
1874.000	86
1875.000	85
1876.000	85
1877.000	88
1878.000	85
1879.000	84
1880.000	85
1881.000	82
1882.000	82
1883.000	81
1884.000	81
1885.000	84
1886.000	87
1887.000	80
1888.000	86
1889.000	83
1890.000	86
1891.000	84
1892.000	88
1893.000	90
1894.000	86
1895.000	95
1896.000	97
1897.000	97
1898.000	102
1899.000	103
1900.000	97
1901.000	102
1902.000	107
1903.000	112
1904.000	118
1905.000	124
1906.000	123
1907.000	119
1908.000	126
1909.000	129
1910.000	130
1911.000	132
1912.000	130
1913.000	128
1914.000	122
1915.000	125
1916.000	127
1917.000	118
1918.000	119
1919.000	112
1920.000	107
1921.000	99
1922.000	101
1923.000	98
1924.000	93
1925.000	93
1926.000	87
1927.000	86
1928.000	85
1929.000	79
1930.000	80
1931.000	78
1932.000	72
1933.000	77
1934.000	72
1935.000	76
1936.000	74
1937.000	73
1938.000	74
1939.000	73
1940.000	72
1941.000	74
1942.000	72
1943.000	75
1944.000	70
1945.000	78
1946.000	76
1947.000	70
1948.000	74
1949.000	75
1950.000	74
1951.000	69
1952.000	67
1953.000	66
1954.000	69
1955.000	67
1956.000	68
1957.000	61
1958.000	62
1959.000	64
1960.000	58
1961.000	62
1962.000	59
1963.000	62
1964.000	57
1965.000	62
1966.000	60
1967.000	58
1968.000	60
1969.000	57
1970.000	59
1971.000	56
1972.000	59
1973.000	55
1974.000	57
1975.000	59
1976.000	57
1977.000	54
1978.000	52
1979.000	57
1980.000	55
1981.000	57
1982.000	55
1983.000	57
1984.000	59
1985.000	58
1986.000	57
1987.000	59
1988.000	55
1989.000	55
1990.000	56
1991.000	56
1992.000	53
1993.000	59
1994.000	54
1995.000	59
1996.000	55
1997.000	55
1998.000	54
1999.000	57
2000.000	58
2001.000	56
2002.000	60
2003.000	55
2004.000	53
2005.000	54
2006.000	52
2007.000	51
2008.000	55
2009.000	55
2010.000	55
2011.000	54
2012.000	51
2013.000	51
2014.000	55
2015.000	51
2016.000	54
2017.000	53
2018.000	53
2019.000	53
2020.000	53
2021.000	54
2022.000	55
2023.000	53
2024.000	50
2025.000	54
2026.000	53
2027.000	52
2028.000	53
2029.000	51
2030.000	49
2031.000	51
2032.000	49
2033.000	55
2034.000	52
2035.000	51
2036.000	55
2037.000	53
2038.000	48
2039.000	52
2040.000	56
2041.000	53
2042.000	51
2043.000	49
2044.000	51
2045.000	49
2046.000	52
2047.000	52
2048.000	0
